Wavelength	PL390-MAO-Cr-Mau4
nm	Counts
449.342	1000
449.472	1006
449.602	1002
449.732	1005
449.862	1003
449.992	1001
450.122	1004
450.252	1009
450.382	1003
450.512	1005
450.642	1002
450.772	1009
450.902	1009
451.032	1007
451.162	1002
451.292	1005
451.422	1003
451.552	1007
451.682	1007
451.812	1007
451.942	1002
452.071	1005
452.201	1007
452.331	1007
452.461	1004
452.591	1011
452.721	1006
452.851	1002
452.981	1005
453.111	1004
453.241	1007
453.371	1006
453.501	1001
453.63	1003
453.76	1004
453.89	1009
454.02	1008
454.15	1005
454.28	1004
454.41	1007
454.539	1004
454.669	1002
454.799	1004
454.929	1010
455.059	1003
455.189	1008
455.318	1004
455.448	1006
455.578	1002
455.708	1004
455.838	999
455.968	1004
456.097	1008
456.227	1004
456.357	1005
456.487	1005
456.617	1005
456.746	1007
456.876	1004
457.006	1004
457.136	1011
457.265	1002
457.395	1008
457.525	1007
457.655	1001
457.784	1006
457.914	1006
458.044	1004
458.174	1007
458.303	1006
458.433	1007
458.563	1005
458.692	1005
458.822	1005
458.952	1008
459.081	1003
459.211	1004
459.341	1004
459.47	1005
459.6	1008
459.73	1004
459.86	1019
459.989	1008
460.119	1009
460.248	1010
460.378	1004
460.508	1004
460.637	1000
460.767	1004
460.897	1005
461.026	1000
461.156	1002
461.286	999
461.415	1003
461.545	1000
461.674	1003
461.804	1003
461.933	1002
462.063	1001
462.193	1006
462.322	1000
462.452	1003
462.581	1001
462.711	1004
462.84	1004
462.97	1005
463.1	1005
463.229	1002
463.359	1005
463.488	1006
463.618	1009
463.747	1006
463.877	1011
464.006	1010
464.136	1004
464.265	1002
464.395	1007
464.524	1007
464.654	1005
464.783	1013
464.913	1002
465.042	1003
465.172	1001
465.301	1009
465.431	1005
465.56	1006
465.69	1004
465.819	1008
465.948	1000
466.078	1004
466.207	1007
466.337	1007
466.466	1001
466.596	1009
466.725	1005
466.854	1006
466.984	1010
467.113	1002
467.243	1005
467.372	1003
467.501	1009
467.631	1003
467.76	1007
467.889	1008
468.019	1000
468.148	1002
468.278	1003
468.407	1003
468.536	1002
468.666	1009
468.795	1011
468.924	1007
469.054	1011
469.183	1004
469.312	1004
469.442	999
469.571	1004
469.7	999
469.829	1005
469.959	1009
470.088	1010
470.217	1001
470.347	1004
470.476	1004
470.605	1009
470.734	1001
470.864	1006
470.993	1007
471.122	1007
471.251	1007
471.381	1008
471.51	1001
471.639	1007
471.768	1005
471.898	1003
472.027	1001
472.156	1006
472.285	1006
472.414	1005
472.544	1004
472.673	1006
472.802	1000
472.931	1006
473.06	1002
473.189	1008
473.319	1005
473.448	1007
473.577	1006
473.706	1002
473.835	1007
473.964	1008
474.094	1005
474.223	1005
474.352	1005
474.481	1004
474.61	1004
474.739	1007
474.868	1009
474.997	1003
475.126	1011
475.256	1012
475.385	1005
475.514	1006
475.643	1004
475.772	1003
475.901	1004
476.03	1004
476.159	1006
476.288	1005
476.417	1008
476.546	1011
476.675	1006
476.804	1005
476.933	1003
477.062	1001
477.191	1007
477.32	1004
477.449	1002
477.578	1010
477.707	1008
477.836	1009
477.965	1009
478.094	1007
478.223	1004
478.352	1005
478.481	1000
478.61	1008
478.739	1008
478.868	1004
478.997	1006
479.126	1007
479.255	1005
479.384	1010
479.513	1003
479.642	1001
479.771	1007
479.9	1003
480.028	1003
480.157	1009
480.286	1006
480.415	1004
480.544	1006
480.673	1004
480.802	999
480.931	1009
481.06	1007
481.188	1006
481.317	1008
481.446	1010
481.575	1004
481.704	1007
481.833	1007
481.961	1006
482.09	1006
482.219	1003
482.348	1000
482.477	1005
482.606	1006
482.734	1004
482.863	1002
482.992	1008
483.121	1004
483.249	1006
483.378	1011
483.507	1005
483.636	1007
483.765	1002
483.893	1006
484.022	1009
484.151	1009
484.28	998
484.408	1007
484.537	1008
484.666	1004
484.794	1009
484.923	1007
485.052	1007
485.181	1007
485.309	1009
485.438	1011
485.567	1008
485.695	1006
485.824	1007
485.953	1007
486.081	1005
486.21	1007
486.339	1008
486.467	1002
486.596	1010
486.725	1008
486.853	1003
486.982	1006
487.11	1003
487.239	1009
487.368	1008
487.496	1013
487.625	1006
487.754	1009
487.882	1009
488.011	1005
488.139	1005
488.268	1004
488.396	1005
488.525	1013
488.654	1003
488.782	1009
488.911	1005
489.039	1004
489.168	1008
489.296	1006
489.425	1001
489.553	1005
489.682	1004
489.81	1005
489.939	1007
490.067	1004
490.196	1004
490.324	1007
490.453	1009
490.581	1004
490.71	1006
490.838	1010
490.967	1006
491.095	1002
491.224	1015
491.352	1009
491.481	1005
491.609	1008
491.738	1006
491.866	1006
491.994	1007
492.123	1002
492.251	1008
492.38	1005
492.508	1008
492.636	1013
492.765	1011
492.893	1012
493.022	1006
493.15	1008
493.278	1009
493.407	1011
493.535	1005
493.663	1012
493.792	1003
493.92	1005
494.049	1009
494.177	1005
494.305	1006
494.434	1006
494.562	1005
494.69	1005
494.818	1005
494.947	1004
495.075	1006
495.203	1010
495.332	1010
495.46	1012
495.588	1018
495.716	1010
495.845	1002
495.973	1004
496.101	1005
496.23	1011
496.358	1007
496.486	1003
496.614	1004
496.742	1006
496.871	1006
496.999	1009
497.127	1002
497.255	1008
497.384	1013
497.512	1009
497.64	1013
497.768	1009
497.896	1010
498.024	1010
498.153	1005
498.281	1010
498.409	1004
498.537	1006
498.665	1005
498.793	1016
498.922	1011
499.05	1011
499.178	1012
499.306	1008
499.434	1007
499.562	1010
499.69	1004
499.818	1010
499.947	1009
500.075	1012
500.203	1008
500.331	1007
500.459	1011
500.587	1004
500.715	1012
500.843	1008
500.971	1011
501.099	1008
501.227	1009
501.355	1009
501.483	1005
501.611	1007
501.739	1010
501.867	1007
501.995	1008
502.123	1009
502.251	1008
502.379	1007
502.507	1010
502.635	1003
502.763	1009
502.891	1011
503.019	1009
503.147	1008
503.275	1008
503.403	1007
503.531	1011
503.659	1017
503.787	1009
503.915	1008
504.043	1010
504.171	1008
504.299	1010
504.426	1009
504.554	1004
504.682	1008
504.81	1010
504.938	1012
505.066	1010
505.194	1013
505.322	1009
505.449	1005
505.577	1014
505.705	1012
505.833	1013
505.961	1007
506.089	1009
506.217	1007
506.344	1015
506.472	1007
506.6	1004
506.728	1009
506.856	1009
506.983	1010
507.111	1009
507.239	1009
507.367	1012
507.495	1007
507.622	1006
507.75	1004
507.878	1004
508.006	1011
508.133	1004
508.261	1015
508.389	1009
508.516	1010
508.644	1011
508.772	1007
508.9	1011
509.027	1014
509.155	1009
509.283	1007
509.41	1011
509.538	1010
509.666	1011
509.793	1007
509.921	1010
510.049	1009
510.176	1006
510.304	1005
510.432	1012
510.559	1005
510.687	1006
510.815	1008
510.942	1014
511.07	1012
511.197	1012
511.325	1015
511.453	1005
511.58	1015
511.708	1008
511.835	1004
511.963	1012
512.091	1008
512.218	1006
512.346	1004
512.473	1001
512.601	1010
512.728	1004
512.856	1009
512.983	1006
513.111	1014
513.238	1011
513.366	1010
513.494	1010
513.621	1008
513.749	1011
513.876	1007
514.003	1015
514.131	1010
514.258	1005
514.386	1012
514.513	1014
514.641	1016
514.768	1009
514.896	1006
515.023	1008
515.151	1015
515.278	1010
515.405	1011
515.533	1008
515.66	1007
515.788	1007
515.915	1007
516.042	1009
516.17	1009
516.297	1006
516.425	1009
516.552	1007
516.679	1011
516.807	1012
516.934	1005
517.061	1007
517.189	1009
517.316	1006
517.443	1008
517.571	1010
517.698	1005
517.825	1010
517.953	1011
518.08	1009
518.207	1007
518.335	1007
518.462	1009
518.589	1007
518.716	1009
518.844	1013
518.971	1007
519.098	1005
519.226	1007
519.353	1010
519.48	1004
519.607	1008
519.734	1008
519.862	1009
519.989	1013
520.116	1010
520.243	1009
520.371	1011
520.498	1012
520.625	1009
520.752	1005
520.879	1008
521.006	1007
521.134	1012
521.261	1009
521.388	1011
521.515	1008
521.642	1011
521.769	1007
521.896	1010
522.024	1009
522.151	1010
522.278	1006
522.405	1005
522.532	1009
522.659	1013
522.786	1012
522.913	1009
523.04	1015
523.167	1011
523.295	1015
523.422	1013
523.549	1013
523.676	1012
523.803	1005
523.93	1005
524.057	1007
524.184	1011
524.311	1006
524.438	1013
524.565	1008
524.692	1007
524.819	1007
524.946	1011
525.073	1015
525.2	1007
525.327	1013
525.454	1010
525.581	1011
525.708	1010
525.835	1005
525.962	1006
526.088	1015
526.215	1010
526.342	1011
526.469	1008
526.596	1011
526.723	1011
526.85	1013
526.977	1010
527.104	1011
527.231	1013
527.358	1004
527.484	1007
527.611	1009
527.738	1013
527.865	1013
527.992	1008
528.119	1008
528.246	1006
528.372	1010
528.499	1008
528.626	1013
528.753	1013
528.88	1009
529.006	1016
529.133	1008
529.26	1007
529.387	1012
529.514	1010
529.64	1006
529.767	1012
529.894	1007
530.021	1008
530.147	1009
530.274	1012
530.401	1014
530.528	1004
530.654	1006
530.781	1010
530.908	1013
531.034	1013
531.161	1011
531.288	1009
531.414	1015
531.541	1008
531.668	1012
531.795	1006
531.921	1009
532.048	1014
532.174	1008
532.301	1007
532.428	1007
532.554	1012
532.681	1011
532.808	1008
532.934	1015
533.061	1011
533.187	1012
533.314	1011
533.441	1009
533.567	1012
533.694	1011
533.82	1013
533.947	1015
534.074	1012
534.2	1021
534.327	1000
534.453	1006
534.58	1015
534.706	1006
534.833	1012
534.959	1007
535.086	1013
535.212	1015
535.339	1006
535.465	1012
535.592	1006
535.718	1010
535.845	1010
535.971	1011
536.098	1008
536.224	1006
536.351	1010
536.477	1012
536.604	1006
536.73	1004
536.856	1007
536.983	1006
537.109	1011
537.236	1013
537.362	1007
537.488	1008
537.615	1007
537.741	1013
537.868	1009
537.994	1008
538.12	1011
538.247	1005
538.373	1014
538.499	1011
538.626	1008
538.752	1014
538.878	1010
539.005	1015
539.131	1007
539.257	1015
539.384	1013
539.51	1012
539.636	1008
539.763	1012
539.889	1013
540.015	1016
540.141	1009
540.268	1012
540.394	1004
540.52	1010
540.646	1003
540.773	1013
540.899	1011
541.025	1004
541.151	1011
541.278	1008
541.404	1008
541.53	1010
541.656	1009
541.782	1009
541.909	1001
542.035	1010
542.161	1010
542.287	1010
542.413	1007
542.539	1013
542.665	1015
542.792	1013
542.918	1012
543.044	1008
543.17	1010
543.296	1006
543.422	1014
543.548	1012
543.674	1010
543.801	1009
543.927	1013
544.053	1011
544.179	1014
544.305	1009
544.431	1007
544.557	1013
544.683	1013
544.809	1006
544.935	1015
545.061	1009
545.187	1017
545.313	1012
545.439	1006
545.565	1012
545.691	1009
545.817	1008
545.943	1012
546.069	1013
546.195	1012
546.321	1011
546.447	1011
546.573	1011
546.699	1007
546.825	1008
546.951	1007
547.077	1014
547.203	1014
547.329	1005
547.454	1010
547.58	1004
547.706	1010
547.832	1012
547.958	1015
548.084	1008
548.21	1010
548.336	1005
548.462	1014
548.587	1012
548.713	1011
548.839	1011
548.965	1009
549.091	1006
549.217	1007
549.342	1012
549.468	1011
549.594	1007
549.72	1011
549.846	1010
549.971	1007
550.097	1009
550.223	1009
550.349	1013
550.474	1007
550.6	1010
550.726	1011
550.852	1007
550.977	1007
551.103	1010
551.229	1007
551.355	1011
551.48	1016
551.606	1014
551.732	1010
551.857	1010
551.983	1011
552.109	1013
552.234	1013
552.36	1015
552.486	1003
552.611	1012
552.737	1009
552.863	1015
552.988	1011
553.114	1013
553.24	1012
553.365	999
553.491	1008
553.616	1012
553.742	1002
553.868	1009
553.993	1011
554.119	1004
554.244	1008
554.37	1009
554.495	1013
554.621	1013
554.746	1019
554.872	1011
554.998	1012
555.123	1011
555.249	1019
555.374	1008
555.5	1011
555.625	1014
555.751	1008
555.876	1009
556.002	1006
556.127	1012
556.252	1013
556.378	1008
556.503	1012
556.629	1006
556.754	1011
556.88	1012
557.005	1009
557.131	1016
557.256	1012
557.381	1012
557.507	1006
557.632	1007
557.758	1008
557.883	1008
558.008	1015
558.134	1008
558.259	1009
558.384	1013
558.51	1012
558.635	1006
558.76	1017
558.886	1007
559.011	1009
559.136	1003
559.262	1010
559.387	1012
559.512	1007
559.638	1009
559.763	1013
559.888	1004
560.013	1006
560.139	1007
560.264	1009
560.389	1009
560.514	1012
560.64	1008
560.765	1012
560.89	1009
561.015	1007
561.141	1008
561.266	1013
561.391	1010
561.516	1010
561.641	1009
561.767	1006
561.892	1006
562.017	1013
562.142	1010
562.267	1007
562.392	1011
562.518	1008
562.643	1005
562.768	1013
562.893	1011
563.018	1012
563.143	1007
563.268	1011
563.393	1010
563.518	1013
563.644	1008
563.769	1008
563.894	1012
564.019	1004
564.144	1014
564.269	1010
564.394	1010
564.519	1006
564.644	1015
564.769	1013
564.894	1007
565.019	1007
565.144	1013
565.269	1011
565.394	1007
565.519	1006
565.644	1011
565.769	1015
565.894	1005
566.019	1012
566.144	1012
566.269	1010
566.394	1006
566.519	1013
566.644	1023
566.769	1009
566.893	1011
567.018	1008
567.143	1009
567.268	1008
567.393	1009
567.518	1007
567.643	1010
567.768	1008
567.893	1007
568.017	1016
568.142	1007
568.267	1013
568.392	1011
568.517	1010
568.642	1007
568.766	1008
568.891	1008
569.016	1011
569.141	1010
569.266	1005
569.39	1016
569.515	1012
569.64	1004
569.765	1008
569.889	1012
570.014	1009
570.139	1008
570.264	1010
570.388	1009
570.513	1010
570.638	1006
570.762	1013
570.887	1011
571.012	1008
571.137	1014
571.261	1005
571.386	1004
571.511	1006
571.635	1006
571.76	1012
571.885	1007
572.009	1008
572.134	1012
572.258	1003
572.383	1007
572.508	1013
572.632	1011
572.757	1010
572.881	1011
573.006	1007
573.131	1012
573.255	1007
573.38	1009
573.504	1004
573.629	1011
573.753	1007
573.878	1008
574.003	1009
574.127	1010
574.252	1009
574.376	1011
574.501	1006
574.625	1006
574.75	1006
574.874	1010
574.999	1010
575.123	1010
575.248	1014
575.372	1009
575.496	1010
575.621	1005
575.745	1007
575.87	1011
575.994	1012
576.119	1010
576.243	1011
576.367	1015
576.492	1007
576.616	1006
576.741	1011
576.865	1014
576.989	1010
577.114	1008
577.238	1013
577.362	1013
577.487	1009
577.611	1005
577.735	1008
577.86	1010
577.984	1011
578.108	1014
578.233	1010
578.357	1014
578.481	1007
578.606	1010
578.73	1009
578.854	1010
578.978	1007
578.977	1015
579.106	1008
579.234	1007
579.362	1006
579.491	1008
579.619	1006
579.747	1004
579.875	1007
580.004	1010
580.132	1007
580.26	1010
580.388	1005
580.517	1007
580.645	1009
580.773	1005
580.901	1003
581.03	1010
581.158	1002
581.286	1007
581.414	1010
581.542	1009
581.671	1008
581.799	1005
581.927	1006
582.055	1004
582.183	1009
582.312	1010
582.44	1012
582.568	1008
582.696	1007
582.824	1008
582.952	1007
583.08	1007
583.209	1009
583.337	1007
583.465	1013
583.593	1008
583.721	1007
583.849	1006
583.977	1005
584.105	1011
584.233	1005
584.362	1007
584.49	1019
584.618	1006
584.746	1008
584.874	1008
585.002	1007
585.13	1010
585.258	1009
585.386	1011
585.514	1008
585.642	1005
585.77	1012
585.898	1015
586.026	1010
586.154	1010
586.282	1006
586.41	1008
586.538	1006
586.666	1009
586.794	1008
586.922	1008
587.05	1010
587.178	1006
587.306	1011
587.434	1004
587.562	1006
587.69	1007
587.818	1015
587.946	1007
588.074	1005
588.202	1008
588.33	1011
588.458	1008
588.586	1012
588.714	1010
588.842	1010
588.97	1006
589.097	1008
589.225	1007
589.353	1005
589.481	1012
589.609	1016
589.737	1008
589.865	1007
589.993	1005
590.121	1013
590.248	1013
590.376	1005
590.504	1011
590.632	1007
590.76	1007
590.888	1009
591.015	1010
591.143	1003
591.271	1014
591.399	1000
591.527	1009
591.655	1012
591.782	1011
591.91	1008
592.038	1008
592.166	1010
592.294	1012
592.421	1017
592.549	1010
592.677	1007
592.805	1016
592.932	1010
593.06	1009
593.188	1010
593.316	1014
593.443	1007
593.571	1012
593.699	1006
593.826	1005
593.954	1015
594.082	1008
594.21	1008
594.337	1011
594.465	1005
594.593	1013
594.72	1014
594.848	1010
594.976	1009
595.103	1010
595.231	1018
595.359	1010
595.486	1008
595.614	1017
595.742	1016
595.869	1011
595.997	1008
596.124	1010
596.252	1008
596.38	1009
596.507	1009
596.635	1008
596.763	1011
596.89	1014
597.018	1012
597.145	1016
597.273	1010
597.4	1007
597.528	1014
597.656	1011
597.783	1017
597.911	1013
598.038	1013
598.166	1009
598.293	1014
598.421	1015
598.548	1004
598.676	1013
598.803	1018
598.931	1014
599.058	1008
599.186	1011
599.313	1012
599.441	1011
599.568	1010
599.696	1013
599.823	1008
599.951	1013
600.078	1009
600.206	1013
600.333	1018
600.461	1015
600.588	1018
600.715	1015
600.843	1016
600.97	1011
601.098	1007
601.225	1010
601.353	1012
601.48	1009
601.607	1016
601.735	1010
601.862	1012
601.99	1016
602.117	1016
602.244	1016
602.372	1015
602.499	1015
602.626	1013
602.754	1016
602.881	1014
603.008	1010
603.136	1019
603.263	1009
603.39	1010
603.518	1015
603.645	1014
603.772	1012
603.9	1015
604.027	1014
604.154	1011
604.281	1009
604.409	1015
604.536	1008
604.663	1012
604.791	1021
604.918	1018
605.045	1024
605.172	1019
605.3	1011
605.427	1013
605.554	1016
605.681	1021
605.809	1014
605.936	1016
606.063	1015
606.19	1017
606.317	1015
606.445	1016
606.572	1017
606.699	1016
606.826	1012
606.953	1022
607.08	1010
607.208	1007
607.335	1013
607.462	1014
607.589	1019
607.716	1017
607.843	1019
607.97	1014
608.098	1021
608.225	1011
608.352	1011
608.479	1016
608.606	1015
608.733	1023
608.86	1017
608.987	1018
609.114	1020
609.241	1014
609.369	1015
609.496	1018
609.623	1025
609.75	1020
609.877	1015
610.004	1020
610.131	1020
610.258	1018
610.385	1020
610.512	1019
610.639	1017
610.766	1011
610.893	1018
611.02	1024
611.147	1017
611.274	1024
611.401	1017
611.528	1019
611.655	1022
611.782	1021
611.909	1020
612.036	1015
612.163	1014
612.29	1018
612.417	1023
612.543	1024
612.67	1020
612.797	1025
612.924	1021
613.051	1017
613.178	1019
613.305	1024
613.432	1015
613.559	1032
613.686	1022
613.813	1020
613.939	1030
614.066	1020
614.193	1017
614.32	1013
614.447	1022
614.574	1025
614.701	1020
614.827	1024
614.954	1024
615.081	1021
615.208	1017
615.335	1021
615.461	1027
615.588	1024
615.715	1026
615.842	1018
615.969	1024
616.095	1024
616.222	1024
616.349	1018
616.476	1021
616.602	1019
616.729	1026
616.856	1018
616.983	1027
617.109	1028
617.236	1022
617.363	1024
617.49	1017
617.616	1029
617.743	1022
617.87	1021
617.996	1025
618.123	1018
618.25	1024
618.376	1027
618.503	1024
618.63	1026
618.756	1024
618.883	1022
619.01	1025
619.136	1024
619.263	1024
619.39	1024
619.516	1025
619.643	1019
619.769	1033
619.896	1029
620.023	1033
620.149	1032
620.276	1028
620.402	1021
620.529	1036
620.656	1029
620.782	1032
620.909	1025
621.035	1024
621.162	1027
621.288	1035
621.415	1036
621.541	1035
621.668	1027
621.795	1036
621.921	1026
622.048	1027
622.174	1035
622.301	1032
622.427	1033
622.554	1025
622.68	1030
622.807	1027
622.933	1028
623.059	1028
623.186	1031
623.312	1021
623.439	1032
623.565	1034
623.692	1026
623.818	1037
623.945	1038
624.071	1032
624.197	1034
624.324	1025
624.45	1033
624.577	1032
624.703	1029
624.829	1024
624.956	1033
625.082	1032
625.209	1035
625.335	1031
625.461	1033
625.588	1033
625.714	1035
625.84	1029
625.967	1043
626.093	1036
626.219	1034
626.346	1024
626.472	1034
626.598	1038
626.725	1036
626.851	1045
626.977	1032
627.103	1044
627.23	1036
627.356	1041
627.482	1040
627.608	1034
627.735	1042
627.861	1043
627.987	1038
628.113	1040
628.24	1033
628.366	1041
628.492	1031
628.618	1031
628.745	1036
628.871	1045
628.997	1046
629.123	1050
629.249	1053
629.376	1040
629.502	1038
629.628	1039
629.754	1034
629.88	1043
630.006	1040
630.132	1034
630.259	1040
630.385	1042
630.511	1041
630.637	1056
630.763	1046
630.889	1051
631.015	1043
631.141	1038
631.268	1049
631.394	1048
631.52	1048
631.646	1040
631.772	1044
631.898	1033
632.024	1040
632.15	1047
632.276	1049
632.402	1044
632.528	1046
632.654	1045
632.78	1051
632.906	1044
633.032	1038
633.158	1047
633.284	1050
633.41	1051
633.536	1054
633.662	1047
633.788	1051
633.914	1051
634.04	1053
634.166	1058
634.292	1044
634.418	1053
634.544	1053
634.67	1058
634.796	1057
634.922	1057
635.048	1047
635.173	1056
635.299	1053
635.425	1048
635.551	1052
635.677	1051
635.803	1054
635.929	1060
636.055	1052
636.181	1046
636.306	1054
636.432	1065
636.558	1056
636.684	1073
636.81	1059
636.936	1066
637.061	1056
637.187	1061
637.313	1063
637.439	1066
637.565	1054
637.69	1061
637.816	1061
637.942	1066
638.068	1066
638.193	1061
638.319	1058
638.445	1058
638.571	1060
638.696	1071
638.822	1057
638.948	1073
639.074	1069
639.199	1063
639.325	1067
639.451	1068
639.577	1066
639.702	1056
639.828	1063
639.954	1054
640.079	1063
640.205	1069
640.331	1075
640.456	1063
640.582	1065
640.708	1074
640.833	1069
640.959	1070
641.084	1066
641.21	1070
641.336	1076
641.461	1076
641.587	1069
641.712	1075
641.838	1088
641.964	1069
642.089	1074
642.215	1071
642.34	1074
642.466	1086
642.592	1082
642.717	1074
642.843	1089
642.968	1083
643.094	1081
643.219	1092
643.345	1085
643.47	1080
643.596	1080
643.721	1092
643.847	1085
643.972	1088
644.098	1097
644.223	1090
644.349	1089
644.474	1089
644.6	1098
644.725	1100
644.85	1088
644.976	1088
645.101	1094
645.227	1102
645.352	1090
645.478	1097
645.603	1101
645.728	1104
645.854	1089
645.979	1112
646.105	1098
646.23	1102
646.355	1095
646.481	1106
646.606	1109
646.731	1113
646.857	1119
646.982	1113
647.107	1111
647.233	1106
647.358	1101
647.483	1114
647.609	1107
647.734	1109
647.859	1108
647.985	1114
648.11	1114
648.235	1122
648.36	1107
648.486	1118
648.611	1120
648.736	1121
648.862	1127
648.987	1137
649.112	1120
649.237	1129
649.362	1138
649.488	1140
649.613	1142
649.738	1131
649.863	1123
649.988	1151
650.114	1150
650.239	1134
650.364	1135
650.489	1144
650.614	1144
650.74	1152
650.865	1152
650.99	1157
651.115	1164
651.24	1151
651.365	1154
651.49	1143
651.615	1158
651.741	1161
651.866	1150
651.991	1155
652.116	1150
652.241	1173
652.366	1174
652.491	1156
652.616	1160
652.741	1162
652.866	1158
652.991	1159
653.116	1176
653.241	1159
653.366	1179
653.491	1171
653.616	1177
653.741	1162
653.866	1169
653.991	1167
654.116	1185
654.241	1172
654.366	1201
654.491	1169
654.616	1174
654.741	1175
654.866	1186
654.991	1190
655.116	1197
655.241	1178
655.366	1194
655.491	1187
655.616	1195
655.741	1213
655.866	1199
655.99	1205
656.115	1204
656.24	1219
656.365	1221
656.49	1233
656.615	1239
656.74	1228
656.865	1228
656.989	1234
657.114	1224
657.239	1230
657.364	1243
657.489	1237
657.614	1239
657.738	1233
657.863	1245
657.988	1237
658.113	1231
658.238	1251
658.362	1242
658.487	1274
658.612	1274
658.737	1259
658.861	1280
658.986	1259
659.111	1293
659.236	1290
659.36	1268
659.485	1289
659.61	1286
659.734	1305
659.859	1307
659.984	1312
660.108	1308
660.233	1314
660.358	1306
660.482	1327
660.607	1327
660.732	1340
660.856	1333
660.981	1334
661.106	1357
661.23	1351
661.355	1340
661.48	1367
661.604	1363
661.729	1373
661.853	1378
661.978	1384
662.103	1394
662.227	1359
662.352	1385
662.476	1409
662.601	1386
662.725	1419
662.85	1420
662.974	1399
663.099	1418
663.224	1421
663.348	1423
663.473	1432
663.597	1421
663.722	1410
663.846	1446
663.971	1410
664.095	1453
664.219	1421
664.344	1422
664.468	1459
664.593	1453
664.717	1445
664.842	1449
664.966	1459
665.091	1489
665.215	1466
665.339	1462
665.464	1477
665.588	1462
665.713	1502
665.837	1480
665.961	1458
666.086	1491
666.21	1495
666.335	1483
666.459	1517
666.583	1516
666.708	1542
666.832	1518
666.956	1513
667.081	1529
667.205	1521
667.329	1533
667.454	1525
667.578	1529
667.702	1527
667.826	1510
667.951	1544
668.075	1528
668.199	1527
668.324	1554
668.448	1530
668.572	1537
668.696	1537
668.82	1548
668.945	1540
669.069	1554
669.193	1566
669.317	1541
669.442	1552
669.566	1548
669.69	1563
669.814	1577
669.938	1575
670.062	1583
670.187	1577
670.311	1614
670.435	1592
670.559	1576
670.683	1625
670.807	1611
670.931	1651
671.056	1622
671.18	1667
671.304	1653
671.428	1651
671.552	1668
671.676	1657
671.8	1703
671.924	1667
672.048	1725
672.172	1721
672.296	1722
672.42	1734
672.544	1761
672.669	1725
672.793	1758
672.917	1812
673.041	1779
673.165	1823
673.289	1814
673.413	1776
673.537	1833
673.661	1894
673.785	1870
673.908	1867
674.032	1909
674.156	1891
674.28	1899
674.404	1902
674.528	1940
674.652	1928
674.776	1930
674.9	1955
675.024	1941
675.148	1969
675.272	1977
675.396	1977
675.519	1978
675.643	1972
675.767	2003
675.891	2003
676.015	2015
676.139	1976
676.263	1970
676.386	1997
676.51	1981
676.634	1971
676.758	1993
676.882	1987
677.005	1981
677.129	1924
677.253	1967
677.377	1949
677.501	1946
677.624	1954
677.748	1965
677.872	1912
677.996	1960
678.119	1912
678.243	1915
678.367	1905
678.491	1944
678.614	1908
678.738	1863
678.862	1869
678.985	1881
679.109	1862
679.233	1859
679.356	1862
679.48	1805
679.604	1870
679.727	1860
679.851	1813
679.975	1823
680.098	1833
680.222	1851
680.346	1815
680.469	1807
680.593	1833
680.716	1811
680.84	1819
680.963	1750
681.087	1800
681.211	1799
681.334	1796
681.458	1796
681.581	1787
681.705	1755
681.828	1748
681.952	1759
682.075	1752
682.199	1750
682.322	1811
682.446	1824
682.569	1788
682.693	1788
682.816	1854
682.94	1848
683.063	1904
683.187	1881
683.31	1921
683.434	2002
683.557	2020
683.681	2084
683.804	2201
683.928	2306
684.051	2350
684.174	2522
684.298	2628
684.421	2752
684.545	2916
684.668	3076
684.791	3234
684.915	3382
685.038	3491
685.161	3696
685.285	3778
685.408	3914
685.531	4077
685.655	4183
685.778	4224
685.901	4331
686.025	4445
686.148	4634
686.271	4691
686.395	4798
686.518	4970
686.641	5057
686.764	5101
686.888	5208
687.011	5349
687.134	5401
687.257	5467
687.381	5497
687.504	5535
687.627	5580
687.75	5624
687.873	5651
687.997	5702
688.12	5668
688.243	5633
688.366	5551
688.489	5575
688.613	5472
688.736	5503
688.859	5528
688.982	5319
689.105	5352
689.228	5367
689.351	5207
689.475	5132
689.598	5085
689.721	4975
689.844	4884
689.967	4787
690.09	4741
690.213	4654
690.336	4516
690.459	4515
690.582	4448
690.705	4399
690.828	4355
690.951	4264
691.074	4242
691.197	4123
691.32	4119
691.443	4126
691.566	4070
691.689	4007
691.812	4009
691.935	3988
692.058	3979
692.181	3909
692.304	3965
692.427	3954
692.55	3857
692.673	3865
692.796	3785
692.919	3856
693.042	3846
693.165	3825
693.288	3862
693.411	3775
693.533	3852
693.656	3810
693.779	3725
693.902	3782
694.025	3702
694.148	3669
694.271	3689
694.393	3654
694.516	3647
694.639	3638
694.762	3647
694.885	3562
695.008	3548
695.13	3539
695.253	3517
695.376	3496
695.499	3495
695.622	3462
695.744	3542
695.867	3481
695.99	3465
696.113	3444
696.235	3443
696.358	3520
696.481	3465
696.603	3426
696.726	3401
696.849	3410
696.972	3469
697.094	3492
697.217	3378
697.34	3487
697.462	3513
697.585	3407
697.708	3439
697.83	3446
697.953	3409
698.075	3439
698.198	3444
698.321	3414
698.443	3395
698.566	3443
698.688	3408
698.811	3376
698.934	3362
699.056	3354
699.179	3375
699.301	3310
699.424	3319
699.546	3307
699.669	3306
699.792	3293
699.914	3265
700.037	3273
700.159	3270
700.282	3229
700.404	3196
700.527	3180
700.649	3228
700.772	3109
700.894	3113
701.016	3083
701.139	3077
701.261	3042
701.384	3087
701.506	3085
701.629	3039
701.751	3025
701.873	3029
701.996	3000
702.118	2997
702.241	2976
702.363	3011
702.485	3012
702.608	2974
702.73	2959
702.853	2970
702.975	2931
703.097	2960
703.22	2983
703.342	2979
703.464	3041
703.587	3034
703.709	2963
703.831	3038
703.953	2965
704.076	2984
704.198	3010
704.32	3059
704.442	3031
704.565	3108
704.687	2992
704.809	3056
704.931	3134
705.054	3129
705.176	3123
705.298	3126
705.42	3111
705.543	3121
705.665	3052
705.787	3108
705.909	3154
706.031	3190
706.025	3347
706.151	3456
706.278	3427
706.404	3433
706.531	3398
706.657	3436
706.783	3392
706.91	3465
707.036	3408
707.162	3422
707.289	3418
707.415	3413
707.541	3435
707.668	3450
707.794	3332
707.92	3417
708.047	3402
708.173	3414
708.299	3380
708.426	3387
708.552	3345
708.678	3373
708.805	3317
708.931	3351
709.057	3365
709.183	3266
709.31	3300
709.436	3281
709.562	3299
709.688	3282
709.815	3261
709.941	3194
710.067	3178
710.193	3162
710.32	3141
710.446	3182
710.572	3161
710.698	3133
710.824	3053
710.951	3140
711.077	3078
711.203	3025
711.329	3062
711.455	2977
711.581	2971
711.708	2950
711.834	3019
711.96	2993
712.086	2994
712.212	3002
712.338	2953
712.464	2959
712.591	3044
712.717	2929
712.843	2962
712.969	2961
713.095	2967
713.221	2954
713.347	2906
713.473	2922
713.599	2951
713.725	2951
713.852	2921
713.978	2951
714.104	2957
714.23	2962
714.356	2913
714.482	2967
714.608	2930
714.734	2945
714.86	2985
714.986	3029
715.112	2979
715.238	3044
715.364	2975
715.49	3071
715.616	3053
715.742	2999
715.868	3036
715.994	3069
716.12	3024
716.246	3053
716.372	3021
716.498	3115
716.624	3139
716.75	3012
716.876	3063
717.002	3035
717.127	2960
717.253	2969
717.379	2991
717.505	2931
717.631	2970
717.757	2902
717.883	2899
718.009	2870
718.135	2830
718.261	2802
718.386	2792
718.512	2786
718.638	2788
718.764	2706
718.89	2705
719.016	2715
719.142	2680
719.267	2626
719.393	2645
719.519	2616
719.645	2533
719.771	2589
719.896	2516
720.022	2562
720.148	2526
720.274	2512
720.4	2475
720.525	2502
720.651	2458
720.777	2446
720.903	2463
721.029	2360
721.154	2426
721.28	2408
721.406	2381
721.531	2382
721.657	2419
721.783	2405
721.909	2386
722.034	2362
722.16	2393
722.286	2380
722.411	2350
722.537	2348
722.663	2311
722.789	2307
722.914	2347
723.04	2319
723.166	2259
723.291	2275
723.417	2235
723.542	2223
723.668	2215
723.794	2212
723.919	2221
724.045	2199
724.171	2158
724.296	2170
724.422	2148
724.547	2127
724.673	2099
724.799	2111
724.924	2114
725.05	2095
725.175	2086
725.301	2077
725.426	2062
725.552	2081
725.678	2071
725.803	2077
725.929	2051
726.054	2039
726.18	2028
726.305	1988
726.431	2024
726.556	2006
726.682	1986
726.807	1997
726.933	1954
727.058	1956
727.184	1959
727.309	1957
727.435	1995
727.56	1938
727.686	1912
727.811	1893
727.937	1934
728.062	1928
728.187	1917
728.313	1907
728.438	1884
728.564	1920
728.689	1919
728.815	1860
728.94	1882
729.065	1888
729.191	1872
729.316	1850
729.441	1852
729.567	1832
729.692	1853
729.818	1847
729.943	1836
730.068	1850
730.194	1850
730.319	1850
730.444	1844
730.57	1800
730.695	1802
730.82	1837
730.946	1769
731.071	1839
731.196	1771
731.321	1807
731.447	1810
731.572	1807
731.697	1809
731.823	1833
731.948	1802
732.073	1752
732.198	1745
732.324	1769
732.449	1784
732.574	1768
732.699	1803
732.825	1773
732.95	1781
733.075	1785
733.2	1758
733.325	1730
733.451	1736
733.576	1740
733.701	1725
733.826	1741
733.951	1740
734.077	1735
734.202	1737
734.327	1742
734.452	1728
734.577	1760
734.702	1720
734.827	1740
734.953	1669
735.078	1725
735.203	1714
735.328	1691
735.453	1716
735.578	1709
735.703	1669
735.828	1702
735.953	1713
736.078	1676
736.203	1719
736.329	1711
736.454	1698
736.579	1688
736.704	1697
736.829	1661
736.954	1694
737.079	1676
737.204	1679
737.329	1662
737.454	1640
737.579	1683
737.704	1668
737.829	1664
737.954	1663
738.079	1695
738.204	1661
738.329	1693
738.454	1663
738.579	1667
738.704	1628
738.829	1659
738.953	1656
739.078	1655
739.203	1648
739.328	1664
739.453	1663
739.578	1653
739.703	1642
739.828	1604
739.953	1602
740.078	1639
740.203	1642
740.327	1617
740.452	1615
740.577	1590
740.702	1617
740.827	1609
740.952	1612
741.077	1608
741.201	1611
741.326	1625
741.451	1637
741.576	1611
741.701	1607
741.825	1616
741.95	1602
742.075	1588
742.2	1620
742.325	1603
742.449	1618
742.574	1582
742.699	1586
742.824	1568
742.948	1571
743.073	1564
743.198	1538
743.323	1571
743.447	1586
743.572	1583
743.697	1581
743.821	1556
743.946	1571
744.071	1594
744.196	1579
744.32	1575
744.445	1561
744.57	1544
744.694	1564
744.819	1542
744.944	1556
745.068	1543
745.193	1538
745.318	1526
745.442	1538
745.567	1536
745.691	1543
745.816	1531
745.941	1531
746.065	1508
746.19	1538
746.314	1525
746.439	1548
746.564	1542
746.688	1516
746.813	1504
746.937	1546
747.062	1504
747.186	1529
747.311	1513
747.435	1508
747.56	1513
747.684	1506
747.809	1529
747.933	1493
748.058	1468
748.182	1489
748.307	1480
748.431	1460
748.556	1484
748.68	1493
748.805	1500
748.929	1470
749.054	1511
749.178	1484
749.303	1465
749.427	1482
749.552	1489
749.676	1478
749.8	1494
749.925	1480
750.049	1474
750.174	1448
750.298	1476
750.422	1464
750.547	1477
750.671	1434
750.796	1469
750.92	1497
751.044	1455
751.169	1460
751.293	1477
751.417	1436
751.542	1461
751.666	1431
751.79	1443
751.915	1450
752.039	1432
752.163	1446
752.287	1442
752.412	1427
752.536	1435
752.66	1455
752.785	1416
752.909	1418
753.033	1422
753.157	1431
753.282	1415
753.406	1454
753.53	1426
753.654	1427
753.779	1418
753.903	1416
754.027	1414
754.151	1430
754.275	1412
754.4	1412
754.524	1415
754.648	1414
754.772	1366
754.896	1392
755.02	1401
755.145	1411
755.269	1406
755.393	1417
755.517	1420
755.641	1404
755.765	1388
755.889	1411
756.013	1392
756.138	1398
756.262	1395
756.386	1397
756.51	1402
756.634	1400
756.758	1366
756.882	1389
757.006	1395
757.13	1364
757.254	1380
757.378	1364
757.502	1383
757.626	1385
757.75	1364
757.874	1371
757.998	1406
758.122	1372
758.246	1396
758.37	1368
758.494	1367
758.618	1380
758.742	1347
758.866	1376
758.99	1374
759.114	1372
759.238	1377
759.362	1362
759.486	1345
759.61	1365
759.734	1353
759.858	1352
759.982	1368
760.106	1351
760.23	1348
760.353	1365
760.477	1343
760.601	1337
760.725	1327
760.849	1342
760.973	1363
761.097	1367
761.221	1355
761.344	1353
761.468	1323
761.592	1348
761.716	1343
761.84	1341
761.963	1336
762.087	1315
762.211	1349
762.335	1339
762.459	1328
762.582	1330
762.706	1321
762.83	1331
762.954	1320
763.078	1322
763.201	1320
763.325	1351
763.449	1322
763.572	1321
763.696	1333
763.82	1322
763.944	1299
764.067	1306
764.191	1329
764.315	1322
764.438	1328
764.562	1308
764.686	1303
764.809	1309
764.933	1306
765.057	1324
765.18	1291
765.304	1317
765.428	1318
765.551	1303
765.675	1311
765.798	1298
765.922	1300
766.046	1301
766.169	1294
766.293	1298
766.416	1305
766.54	1304
766.664	1299
766.787	1317
766.911	1302
767.034	1292
767.158	1293
767.281	1293
767.405	1301
767.528	1300
767.652	1286
767.775	1283
767.899	1307
768.022	1297
768.146	1293
768.269	1275
768.393	1278
768.516	1278
768.64	1280
768.763	1271
768.887	1282
769.01	1286
769.134	1284
769.257	1259
769.381	1264
769.504	1253
769.627	1255
769.751	1277
769.874	1256
769.998	1258
770.121	1276
770.244	1257
770.368	1261
770.491	1279
770.614	1274
770.738	1261
770.861	1275
770.985	1258
771.108	1249
771.231	1277
771.355	1256
771.478	1247
771.601	1259
771.724	1249
771.848	1267
771.971	1264
772.094	1258
772.218	1242
772.341	1272
772.464	1266
772.587	1242
772.711	1260
772.834	1250
772.957	1258
773.08	1247
773.204	1237
773.327	1237
773.45	1233
773.573	1238
773.696	1212
773.82	1229
773.943	1239
774.066	1239
774.189	1256
774.312	1228
774.436	1238
774.559	1243
774.682	1258
774.805	1262
774.928	1227
775.051	1215
775.174	1234
775.297	1235
775.421	1212
775.544	1218
775.667	1235
775.79	1234
775.913	1215
776.036	1247
776.159	1227
776.282	1245
776.405	1227
776.528	1221
776.651	1233
776.774	1219
776.897	1237
777.02	1230
777.143	1235
777.266	1220
777.389	1220
777.512	1212
777.635	1233
777.758	1204
777.881	1200
778.004	1230
778.127	1226
778.25	1200
778.373	1211
778.496	1227
778.619	1217
778.742	1207
778.865	1193
778.988	1206
779.111	1226
779.234	1209
779.357	1210
779.48	1223
779.602	1205
779.725	1194
779.848	1198
779.971	1208
780.094	1205
780.217	1185
780.34	1216
780.462	1202
780.585	1201
780.708	1198
780.831	1196
780.954	1199
781.077	1189
781.199	1210
781.322	1185
781.445	1180
781.568	1198
781.691	1191
781.813	1179
781.936	1190
782.059	1195
782.182	1193
782.304	1208
782.427	1175
782.55	1194
782.672	1194
782.795	1189
782.918	1197
783.041	1195
783.163	1189
783.286	1189
783.409	1184
783.531	1187
783.654	1188
783.777	1171
783.899	1184
784.022	1185
784.145	1165
784.267	1181
784.39	1196
784.512	1176
784.635	1171
784.758	1170
784.88	1183
785.003	1182
785.125	1180
785.248	1170
785.371	1188
785.493	1180
785.616	1162
785.738	1168
785.861	1169
785.983	1181
786.106	1158
786.228	1178
786.351	1174
786.473	1179
786.596	1165
786.718	1169
786.841	1164
786.963	1182
787.086	1179
787.208	1169
787.331	1162
787.453	1162
787.576	1171
787.698	1151
787.821	1171
787.943	1172
788.066	1152
788.188	1166
788.31	1156
788.433	1170
788.555	1164
788.678	1149
788.8	1149
788.922	1147
789.045	1165
789.167	1157
789.289	1160
789.412	1160
789.534	1151
789.656	1165
789.779	1150
789.901	1136
790.023	1146
790.146	1134
790.268	1166
790.39	1159
790.513	1167
790.635	1159
790.757	1152
790.879	1135
791.002	1179
791.124	1155
791.246	1152
791.368	1162
791.491	1148
791.613	1165
791.735	1146
791.857	1153
791.98	1146
792.102	1150
792.224	1145
792.346	1149
792.468	1150
792.59	1158
792.713	1146
792.835	1150
792.957	1141
793.079	1148
793.201	1159
793.323	1143
793.446	1154
793.568	1142
793.69	1157
793.812	1144
793.934	1144
794.056	1138
794.178	1142
794.3	1152
794.422	1150
794.544	1148
794.666	1124
794.788	1138
794.91	1146
795.033	1126
795.155	1132
795.277	1133
795.399	1145
795.521	1159
795.643	1152
795.765	1151
795.887	1131
796.009	1128
796.131	1132
796.253	1135
796.374	1137
796.496	1135
796.618	1145
796.74	1145
796.862	1133
796.984	1146
797.106	1139
797.228	1127
797.35	1122
797.472	1133
797.594	1139
797.716	1144
797.837	1120
797.959	1129
798.081	1125
798.203	1131
798.325	1135
798.447	1133
798.569	1142
798.69	1138
798.812	1132
798.934	1138
799.056	1129
799.178	1127
799.299	1139
799.421	1133
799.543	1127
799.665	1117
799.787	1138
799.908	1120
800.03	1132
800.152	1131
800.274	1111
800.395	1123
800.517	1117
800.639	1129
800.76	1117
800.882	1137
801.004	1110
801.126	1124
801.247	1140
801.369	1114
801.491	1127
801.612	1116
801.734	1128
801.856	1121
801.977	1129
802.099	1117
802.22	1127
802.342	1118
802.464	1120
802.585	1122
802.707	1116
802.828	1127
802.95	1121
803.072	1124
803.193	1119
803.315	1118
803.436	1128
803.558	1126
803.679	1128
803.801	1120
803.922	1115
804.044	1126
804.165	1127
804.287	1117
804.408	1113
804.53	1110
804.651	1121
804.773	1117
804.894	1129
805.016	1126
805.137	1110
805.259	1105
805.38	1118
805.502	1120
805.623	1107
805.745	1128
805.866	1112
805.987	1125
806.109	1119
806.23	1112
806.352	1102
806.473	1104
806.594	1112
806.716	1107
806.837	1117
806.958	1116
807.08	1128
807.201	1113
807.322	1099
807.444	1120
807.565	1102
807.686	1124
807.808	1100
807.929	1104
808.05	1106
808.171	1102
808.293	1106
808.414	1109
808.535	1122
808.657	1113
808.778	1111
808.899	1112
809.02	1115
809.141	1113
809.263	1123
809.384	1095
809.505	1093
809.626	1097
809.747	1108
809.869	1098
809.99	1103
810.111	1111
810.232	1101
810.353	1110
810.474	1106
810.596	1104
810.717	1098
810.838	1087
810.959	1109
811.08	1097
811.201	1094
811.322	1117
811.443	1112
811.564	1103
811.686	1095
811.807	1089
811.928	1106
812.049	1111
812.17	1101
812.291	1096
812.412	1095
812.533	1102
812.654	1094
812.775	1101
812.896	1095
813.017	1102
813.138	1104
813.259	1103
813.38	1095
813.501	1108
813.622	1101
813.743	1097
813.864	1098
813.985	1093
814.105	1105
814.226	1097
814.347	1088
814.468	1099
814.589	1104
814.71	1108
814.831	1091
814.952	1095
815.073	1094
815.194	1102
815.314	1096
815.435	1095
815.556	1094
815.677	1096
815.798	1100
815.919	1096
816.039	1099
816.16	1094
816.281	1087
816.402	1089
816.523	1095
816.643	1089
816.764	1091
816.885	1094
817.006	1087
817.126	1074
817.247	1088
817.368	1087
817.489	1096
817.609	1091
817.73	1102
817.851	1102
817.971	1099
818.092	1093
818.213	1095
818.333	1093
818.454	1081
818.575	1098
818.695	1083
818.816	1087
818.937	1089
819.057	1091
819.178	1082
819.299	1085
819.419	1089
819.54	1080
819.66	1096
819.781	1087
819.902	1087
820.022	1087
820.143	1094
820.263	1096
820.384	1098
820.504	1076
820.625	1086
820.745	1088
820.866	1089
820.987	1107
821.107	1086
821.228	1080
821.348	1083
821.469	1085
821.589	1083
821.709	1083
821.83	1098
821.95	1094
822.071	1090
822.191	1085
822.312	1080
822.432	1072
822.553	1086
822.673	1078
822.793	1085
822.914	1089
823.034	1095
823.155	1082
823.275	1080
823.395	1078
823.516	1084
823.636	1076
823.756	1089
823.877	1096
823.997	1072
824.117	1079
824.238	1071
824.358	1090
824.478	1085
824.599	1088
824.719	1094
824.839	1083
824.959	1079
825.08	1092
825.2	1091
825.32	1079
825.44	1089
825.561	1089
825.681	1073
825.801	1085
825.921	1089
826.042	1083
826.162	1080
826.282	1079
826.402	1079
826.522	1086
826.643	1076
826.763	1077
826.883	1083
827.003	1091
827.123	1080
827.243	1089
827.363	1079
827.484	1087
827.604	1084
827.724	1073
827.844	1075
827.964	1081
828.084	1081
828.204	1083
828.324	1084
828.444	1075
828.564	1064
828.684	1086
828.804	1074
828.924	1069
829.044	1078
829.164	1080
829.284	1082
829.404	1076
829.524	1083
829.644	1080
829.764	1084
829.884	1067
830.004	1077
830.124	1070
830.244	1085
830.364	1071
830.484	1076
830.604	1077
830.724	1076
830.844	1086
830.964	1079
830.961	1084
831.086	1080
831.21	1073
831.334	1074
831.459	1079
831.583	1085
831.707	1074
831.832	1092
831.956	1077
832.08	1073
832.204	1076
832.329	1066
832.453	1069
832.577	1084
832.701	1077
832.826	1086
832.95	1076
833.074	1084
833.198	1073
833.323	1067
833.447	1074
833.571	1077
833.695	1082
833.819	1086
833.944	1086
834.068	1083
834.192	1070
834.316	1071
834.44	1077
834.564	1073
834.689	1071
834.813	1072
834.937	1078
835.061	1080
835.185	1086
835.309	1066
835.433	1078
835.558	1076
835.682	1080
835.806	1062
835.93	1067
836.054	1069
836.178	1066
836.302	1076
836.426	1055
836.55	1073
836.674	1073
836.798	1087
836.922	1070
837.046	1073
837.17	1075
837.295	1069
837.419	1064
837.543	1081
837.667	1067
837.791	1066
837.915	1078
838.039	1071
838.163	1062
838.287	1082
838.411	1071
838.535	1075
838.659	1080
838.782	1080
838.906	1081
839.03	1069
839.154	1075
839.278	1072
839.402	1072
839.526	1074
839.65	1065
839.774	1073
839.898	1072
840.022	1077
840.146	1075
840.27	1065
840.393	1073
840.517	1062
840.641	1074
840.765	1074
840.889	1073
841.013	1071
841.137	1080
841.261	1066
841.384	1074
841.508	1081
841.632	1065
841.756	1071
841.88	1071
842.004	1070
842.127	1069
842.251	1073
842.375	1062
842.499	1071
842.622	1064
842.746	1075
842.87	1069
842.994	1071
843.118	1069
843.241	1066
843.365	1062
843.489	1066
843.613	1069
843.736	1060
843.86	1067
843.984	1089
844.107	1071
844.231	1069
844.355	1073
844.479	1064
844.602	1067
844.726	1070
844.85	1068
844.973	1064
845.097	1063
845.221	1064
845.344	1060
845.468	1068
845.592	1055
845.715	1078
845.839	1058
845.962	1074
846.086	1057
846.21	1062
846.333	1066
846.457	1082
846.58	1069
846.704	1059
846.828	1058
846.951	1079
847.075	1057
847.198	1071
847.322	1064
847.445	1072
847.569	1061
847.693	1068
847.816	1060
847.94	1064
848.063	1073
848.187	1063
848.31	1072
848.434	1071
848.557	1066
848.681	1063
848.804	1069
848.928	1068
849.051	1053
849.175	1063
849.298	1065
849.421	1056
849.545	1058
849.668	1061
849.792	1061
849.915	1060
850.039	1057
850.162	1066
850.286	1062
850.409	1067
850.532	1056
850.656	1069
850.779	1066
850.902	1063
851.026	1056
851.149	1066
851.273	1058
851.396	1057
851.519	1069
851.643	1058
851.766	1058
851.889	1069
852.013	1069
852.136	1057
852.259	1061
852.383	1068
852.506	1059
852.629	1067
852.753	1068
852.876	1057
852.999	1068
853.122	1062
853.246	1065
853.369	1061
853.492	1071
853.615	1066
853.739	1058
853.862	1055
853.985	1053
854.108	1058
854.232	1063
854.355	1064
854.478	1056
854.601	1057
854.724	1067
854.848	1053
854.971	1050
855.094	1049
855.217	1073
855.34	1057
855.463	1058
855.587	1058
855.71	1055
855.833	1055
855.956	1065
856.079	1062
856.202	1059
856.325	1059
856.449	1055
856.572	1065
856.695	1037
856.818	1063
856.941	1055
857.064	1058
857.187	1063
857.31	1059
857.433	1061
857.556	1063
857.679	1057
857.802	1058
857.925	1064
858.048	1061
858.171	1063
858.294	1064
858.417	1066
858.54	1063
858.663	1059
858.786	1064
858.909	1070
859.032	1060
859.155	1052
859.278	1062
859.401	1054
859.524	1061
859.647	1052
859.77	1057
859.893	1058
860.016	1078
860.139	1058
860.262	1051
860.385	1060
860.508	1065
860.631	1051
860.754	1049
860.876	1054
860.999	1047
861.122	1056
861.245	1059
861.368	1057
861.491	1054
861.614	1068
861.736	1052
861.859	1072
861.982	1058
862.105	1046
862.228	1053
862.351	1047
862.473	1053
862.596	1060
862.719	1055
862.842	1070
862.965	1061
863.087	1055
863.21	1056
863.333	1057
863.456	1050
863.578	1053
863.701	1046
863.824	1052
863.947	1053
864.069	1063
864.192	1049
864.315	1063
864.438	1055
864.56	1057
864.683	1060
864.806	1053
864.928	1055
865.051	1053
865.174	1050
865.296	1061
865.419	1057
865.542	1054
865.664	1051
865.787	1058
865.91	1051
866.032	1060
866.155	1053
866.277	1047
866.4	1055
866.523	1050
866.645	1052
866.768	1054
866.89	1060
867.013	1057
867.136	1060
867.258	1054
867.381	1041
867.503	1057
867.626	1050
867.748	1054
867.871	1058
867.993	1062
868.116	1042
868.238	1058
868.361	1047
868.483	1052
868.606	1049
868.728	1057
868.851	1048
868.973	1054
869.096	1058
869.218	1050
869.341	1054
869.463	1055
869.586	1054
869.708	1048
869.83	1054
869.953	1054
870.075	1047
870.198	1060
870.32	1056
870.442	1054
870.565	1057
870.687	1051
870.81	1055
870.932	1051
871.054	1050
871.177	1060
871.299	1057
871.421	1059
871.544	1049
871.666	1051
871.788	1051
871.911	1053
872.033	1052
872.155	1054
872.278	1055
872.4	1054
872.522	1055
872.645	1050
872.767	1047
872.889	1048
873.011	1054
873.134	1057
873.256	1048
873.378	1048
873.5	1055
873.623	1050
873.745	1041
873.867	1050
873.989	1059
874.111	1049
874.234	1043
874.356	1057
874.478	1061
874.6	1048
874.722	1050
874.845	1055
874.967	1045
875.089	1049
875.211	1054
875.333	1055
875.455	1058
875.577	1042
875.7	1043
875.822	1056
875.944	1049
876.066	1059
876.188	1047
876.31	1053
876.432	1056
876.554	1052
876.676	1048
876.798	1054
876.92	1049
877.042	1048
877.164	1049
877.287	1051
877.409	1052
877.531	1050
877.653	1056
877.775	1045
877.897	1047
878.019	1044
878.141	1054
878.263	1047
878.385	1049
878.507	1042
878.628	1048
878.75	1051
878.872	1051
878.994	1056
879.116	1052
879.238	1046
879.36	1057
879.482	1040
879.604	1063
879.726	1047
879.848	1047
879.97	1041
880.092	1050
880.213	1046
880.335	1068
880.457	1047
880.579	1039
880.701	1054
880.823	1058
880.945	1056
881.066	1044
881.188	1054
881.31	1045
881.432	1039
881.554	1056
881.675	1057
881.797	1043
881.919	1046
882.041	1046
882.163	1055
882.284	1045
882.406	1046
882.528	1045
882.65	1056
882.771	1032
882.893	1049
883.015	1049
883.137	1045
883.258	1051
883.38	1053
883.502	1055
883.623	1062
883.745	1053
883.867	1051
883.988	1045
884.11	1045
884.232	1046
884.353	1038
884.475	1035
884.597	1049
884.718	1051
884.84	1042
884.962	1043
885.083	1057
885.205	1045
885.326	1059
885.448	1049
885.57	1039
885.691	1040
885.813	1043
885.934	1054
886.056	1046
886.177	1053
886.299	1051
886.421	1052
886.542	1050
886.664	1047
886.785	1043
886.907	1051
887.028	1045
887.15	1059
887.271	1037
887.393	1050
887.514	1051
887.636	1040
887.757	1049
887.879	1053
888	1045
888.121	1038
888.243	1050
888.364	1048
888.486	1048
888.607	1045
888.729	1045
888.85	1051
888.971	1047
889.093	1040
889.214	1049
889.336	1043
889.457	1035
889.578	1034
889.7	1060
889.821	1038
889.942	1049
890.064	1050
890.185	1040
890.306	1045
890.428	1047
890.549	1052
890.67	1048
890.792	1045
890.913	1049
891.034	1040
891.156	1047
891.277	1042
891.398	1049
891.519	1042
891.641	1044
891.762	1045
891.883	1044
892.004	1048
892.126	1040
892.247	1038
892.368	1044
892.489	1037
892.61	1037
892.732	1048
892.853	1036
892.974	1043
893.095	1047
893.216	1041
893.337	1049
893.459	1055
893.58	1038
893.701	1039
893.822	1048
893.943	1043
894.064	1045
894.185	1038
894.306	1047
894.428	1040
894.549	1038
894.67	1048
894.791	1048
894.912	1044
895.033	1052
895.154	1043
895.275	1040
895.396	1045
895.517	1038
895.638	1038
895.759	1045
895.88	1037
896.001	1042
896.122	1037
896.243	1038
896.364	1047
896.485	1050
896.606	1038
896.727	1031
896.848	1046
896.969	1040
897.09	1039
897.211	1038
897.332	1044
897.453	1044
897.574	1033
897.695	1038
897.816	1042
897.936	1044
898.057	1033
898.178	1042
898.299	1035
898.42	1040
898.541	1049
898.662	1052
898.783	1046
898.903	1041
899.024	1039
899.145	1033
899.266	1042
899.387	1044
899.507	1038
899.628	1036
899.749	1033
899.87	1040
899.991	1052
900.111	1045
900.232	1038
900.353	1045
900.474	1039
900.594	1045
900.715	1044
900.836	1034
900.957	1035
901.077	1042
901.198	1043
901.319	1033
901.439	1029
901.56	1034
901.681	1045
901.802	1043
901.922	1036
902.043	1048
902.164	1042
902.284	1039
902.405	1046
902.525	1042
902.646	1037
902.767	1036
902.887	1043
903.008	1041
903.129	1039
903.249	1041
903.37	1049
903.49	1036
903.611	1038
903.731	1040
903.852	1030
903.973	1037
904.093	1034
904.214	1034
904.334	1035
904.455	1039
904.575	1038
904.696	1039
904.816	1037
904.937	1039
905.057	1039
905.178	1042
905.298	1042
905.419	1039
905.539	1030
905.66	1048
905.78	1036
905.9	1035
906.021	1033
906.141	1037
906.262	1037
906.382	1043
906.503	1029
906.623	1034
906.743	1035
906.864	1042
906.984	1034
907.104	1030
907.225	1040
907.345	1034
907.466	1031
907.586	1034
907.706	1031
907.827	1039
907.947	1039
908.067	1036
908.188	1033
908.308	1027
908.428	1024
908.548	1042
908.669	1033
908.789	1034
908.909	1033
909.029	1032
909.15	1040
909.27	1036
909.39	1032
909.51	1030
909.631	1035
909.751	1039
909.871	1044
909.991	1034
910.111	1037
910.232	1032
910.352	1039
910.472	1038
910.592	1026
910.712	1032
910.832	1035
910.953	1034
911.073	1027
911.193	1028
911.313	1032
911.433	1023
911.553	1029
911.673	1039
911.793	1031
911.914	1025
912.034	1028
912.154	1032
912.274	1035
912.394	1031
912.514	1038
912.634	1039
912.754	1032
912.874	1032
912.994	1027
913.114	1034
913.234	1025
913.354	1025
913.474	1027
913.594	1036
913.714	1035
913.834	1040
913.954	1047
914.074	1033
914.194	1032
914.314	1038
914.434	1033
914.554	1036
914.674	1035
914.794	1022
914.913	1034
915.033	1034
915.153	1027
915.273	1029
915.393	1028
915.513	1032
915.633	1030
915.753	1027
915.872	1035
915.992	1038
916.112	1026
916.232	1024
916.352	1032
916.472	1031
916.591	1029
916.711	1028
916.831	1027
916.951	1026
917.071	1031
917.19	1034
917.31	1033
917.43	1028
917.55	1033
917.669	1029
917.789	1024
917.909	1034
918.029	1029
918.148	1024
918.268	1024
918.388	1021
918.507	1023
918.627	1028
918.747	1023
918.866	1025
918.986	1032
919.106	1028
919.225	1026
919.345	1030
919.465	1027
919.584	1030
919.704	1032
919.824	1025
919.943	1021
920.063	1033
920.182	1031
920.302	1026
920.421	1028
920.541	1034
920.661	1026
920.78	1029
920.9	1023
921.019	1020
921.139	1026
921.258	1025
921.378	1032
921.497	1035
921.617	1034
921.736	1027
921.856	1026
921.975	1029
922.095	1028
922.214	1033
922.334	1024
922.453	1024
922.573	1025
922.692	1024
922.812	1034
922.931	1021
923.05	1024
923.17	1034
923.289	1028
923.409	1029
923.528	1021
923.647	1028
923.767	1032
923.886	1034
924.005	1023
924.125	1027
924.244	1026
924.363	1030
924.483	1028
924.602	1019
924.721	1021
924.841	1020
924.96	1030
925.079	1026
925.199	1024
925.318	1028
925.437	1026
925.556	1032
925.676	1028
925.795	1028
925.914	1026
926.033	1024
926.153	1019
926.272	1027
926.391	1033
926.51	1025
926.629	1029
926.749	1029
926.868	1028
926.987	1024
927.106	1019
927.225	1021
927.345	1031
927.464	1032
927.583	1026
927.702	1028
927.821	1025
927.94	1030
928.059	1037
928.178	1028
928.297	1022
928.417	1022
928.536	1026
928.655	1021
928.774	1027
928.893	1031
929.012	1024
929.131	1029
929.25	1027
929.369	1023
929.488	1025
929.607	1031
929.726	1026
929.845	1030
929.964	1022
930.083	1035
930.202	1025
930.321	1019
930.44	1028
930.559	1028
930.678	1024
930.797	1023
930.916	1029
931.035	1020
931.154	1032
931.272	1027
931.391	1029
931.51	1031
931.629	1030
931.748	1026
931.867	1029
931.986	1029
932.105	1027
932.223	1027
932.342	1023
932.461	1025
932.58	1028
932.699	1024
932.818	1029
932.936	1022
933.055	1025
933.174	1028
933.293	1024
933.412	1019
933.53	1019
933.649	1023
933.768	1022
933.887	1025
934.005	1023
934.124	1022
934.243	1020
934.361	1031
934.48	1026
934.599	1030
934.718	1030
934.836	1026
934.955	1025
935.074	1023
935.192	1025
935.311	1027
935.43	1026
935.548	1021
935.667	1026
935.785	1027
935.904	1022
936.023	1030
936.141	1026
936.26	1024
936.378	1024
936.497	1020
936.616	1028
936.734	1034
936.853	1024
936.971	1029
937.09	1024
937.208	1027
937.327	1027
937.445	1025
937.564	1024
937.682	1027
937.801	1022
937.919	1022
938.038	1025
938.156	1024
938.275	1023
938.393	1019
938.512	1028
938.63	1026
938.749	1027
938.867	1021
938.986	1024
939.104	1024
939.222	1019
939.341	1029
939.459	1025
939.577	1023
939.696	1026
939.814	1023
939.933	1029
940.051	1027
940.169	1022
940.288	1023
940.406	1027
940.524	1027
940.643	1018
940.761	1017
940.879	1024
940.998	1022
941.116	1020
941.234	1018
941.352	1018
941.471	1028
941.589	1025
941.707	1020
941.825	1030
941.944	1028
942.062	1016
942.18	1018
942.298	1023
942.416	1023
942.535	1017
942.653	1018
942.771	1021
942.889	1030
943.007	1023
943.125	1024
943.244	1029
943.362	1027
943.48	1025
943.598	1015
943.716	1016
943.834	1018
943.952	1028
944.07	1027
944.189	1022
944.307	1027
944.425	1015
944.543	1024
944.661	1018
944.779	1020
944.897	1024
945.015	1021
945.133	1024
945.251	1024
945.369	1021
945.487	1019
945.605	1014
945.723	1023
945.841	1028
945.959	1031
946.077	1018
946.195	1018
946.313	1025
946.431	1015
946.549	1026
946.667	1019
946.785	1023
946.902	1017
947.02	1017
947.138	1026
947.256	1022
947.374	1024
947.492	1026
947.61	1029
947.728	1024
947.845	1017
947.963	1018
948.081	1021
948.199	1024
948.317	1024
948.435	1025
948.552	1028
948.67	1016
948.788	1015
948.906	1022
949.024	1027
949.141	1017
949.259	1016
949.377	1019
949.495	1018
949.612	1016
949.73	1012
949.848	1014
949.965	1013
950.083	1017
950.201	1018
950.318	1022
950.436	1017
950.554	1021
950.672	1024
950.789	1020
950.907	1017
951.024	1021
951.142	1024
951.26	1023
951.377	1018
951.495	1020
951.613	1014
951.73	1022
951.848	1019
951.965	1013
952.083	1022
952.2	1019
952.318	1012
952.436	1014
952.553	1026
952.671	1016
952.788	1018
952.906	1015
953.023	1015
953.141	1021
953.258	1015
953.376	1017
953.493	1022
953.611	1018
953.728	1024
953.845	1024
953.963	1016
954.08	1020
954.198	1015
