Wavelength	PL390-MAO-Cr-Mau8
nm	Counts
449.342	1005
449.472	1013
449.602	1013
449.732	1015
449.862	1010
449.992	1004
450.122	1018
450.252	1014
450.382	1014
450.512	1015
450.642	1013
450.772	1016
450.902	1016
451.032	1021
451.162	1006
451.292	1016
451.422	1005
451.552	1012
451.682	1015
451.812	1010
451.942	1015
452.071	1011
452.201	1011
452.331	1005
452.461	1010
452.591	1019
452.721	1006
452.851	1008
452.981	1018
453.111	1008
453.241	1020
453.371	1014
453.501	1010
453.63	1007
453.76	1005
453.89	1010
454.02	1009
454.15	1009
454.28	1009
454.41	1008
454.539	1009
454.669	1013
454.799	1015
454.929	1012
455.059	1011
455.189	1009
455.318	1013
455.448	1013
455.578	1010
455.708	1009
455.838	1008
455.968	1011
456.097	1006
456.227	1012
456.357	1009
456.487	1013
456.617	1008
456.746	1013
456.876	1019
457.006	1006
457.136	1010
457.265	1012
457.395	1008
457.525	1010
457.655	1010
457.784	1012
457.914	1015
458.044	1006
458.174	1011
458.303	1012
458.433	1012
458.563	1010
458.692	1012
458.822	1009
458.952	1013
459.081	1004
459.211	1012
459.341	1018
459.47	1012
459.6	1017
459.73	1013
459.86	1015
459.989	1014
460.119	1008
460.248	1012
460.378	1013
460.508	1005
460.637	1012
460.767	1012
460.897	1018
461.026	1011
461.156	1016
461.286	1012
461.415	1008
461.545	1011
461.674	1008
461.804	1008
461.933	1015
462.063	1009
462.193	1011
462.322	1010
462.452	1017
462.581	1016
462.711	1018
462.84	1013
462.97	1009
463.1	1008
463.229	1012
463.359	1013
463.488	1010
463.618	1019
463.747	1005
463.877	1009
464.006	1015
464.136	1015
464.265	1017
464.395	1020
464.524	1005
464.654	1011
464.783	1020
464.913	1007
465.042	1015
465.172	1012
465.301	1011
465.431	1012
465.56	1013
465.69	1011
465.819	1016
465.948	1017
466.078	1015
466.207	1013
466.337	1012
466.466	1012
466.596	1019
466.725	1013
466.854	1009
466.984	1018
467.113	1019
467.243	1012
467.372	1019
467.501	1016
467.631	1013
467.76	1013
467.889	1015
468.019	1014
468.148	1012
468.278	1016
468.407	1011
468.536	1013
468.666	1014
468.795	1012
468.924	1010
469.054	1021
469.183	1012
469.312	1009
469.442	1015
469.571	1014
469.7	1012
469.829	1017
469.959	1011
470.088	1010
470.217	1011
470.347	1014
470.476	1013
470.605	1015
470.734	1013
470.864	1011
470.993	1012
471.122	1020
471.251	1010
471.381	1015
471.51	1012
471.639	1017
471.768	1013
471.898	1019
472.027	1018
472.156	1015
472.285	1016
472.414	1012
472.544	1018
472.673	1017
472.802	1015
472.931	1012
473.06	1015
473.189	1011
473.319	1008
473.448	1016
473.577	1018
473.706	1014
473.835	1011
473.964	1016
474.094	1010
474.223	1017
474.352	1020
474.481	1010
474.61	1013
474.739	1012
474.868	1013
474.997	1017
475.126	1014
475.256	1011
475.385	1014
475.514	1014
475.643	1014
475.772	1018
475.901	1013
476.03	1014
476.159	1015
476.288	1012
476.417	1011
476.546	1012
476.675	1019
476.804	1016
476.933	1014
477.062	1019
477.191	1010
477.32	1008
477.449	1015
477.578	1015
477.707	1020
477.836	1012
477.965	1012
478.094	1016
478.223	1019
478.352	1018
478.481	1014
478.61	1016
478.739	1013
478.868	1012
478.997	1019
479.126	1023
479.255	1015
479.384	1010
479.513	1014
479.642	1027
479.771	1014
479.9	1011
480.028	1014
480.157	1021
480.286	1011
480.415	1008
480.544	1015
480.673	1022
480.802	1014
480.931	1015
481.06	1016
481.188	1009
481.317	1015
481.446	1015
481.575	1017
481.704	1023
481.833	1017
481.961	1011
482.09	1017
482.219	1016
482.348	1014
482.477	1015
482.606	1012
482.734	1014
482.863	1015
482.992	1020
483.121	1017
483.249	1022
483.378	1021
483.507	1014
483.636	1021
483.765	1021
483.893	1018
484.022	1015
484.151	1018
484.28	1017
484.408	1021
484.537	1018
484.666	1011
484.794	1010
484.923	1016
485.052	1014
485.181	1018
485.309	1016
485.438	1014
485.567	1012
485.695	1021
485.824	1020
485.953	1012
486.081	1019
486.21	1022
486.339	1012
486.467	1023
486.596	1015
486.725	1024
486.853	1019
486.982	1014
487.11	1016
487.239	1016
487.368	1018
487.496	1022
487.625	1020
487.754	1015
487.882	1016
488.011	1013
488.139	1016
488.268	1016
488.396	1016
488.525	1023
488.654	1013
488.782	1017
488.911	1016
489.039	1019
489.168	1015
489.296	1015
489.425	1018
489.553	1017
489.682	1022
489.81	1015
489.939	1016
490.067	1020
490.196	1014
490.324	1019
490.453	1016
490.581	1021
490.71	1020
490.838	1025
490.967	1018
491.095	1014
491.224	1015
491.352	1018
491.481	1017
491.609	1020
491.738	1017
491.866	1018
491.994	1017
492.123	1022
492.251	1015
492.38	1013
492.508	1017
492.636	1014
492.765	1020
492.893	1015
493.022	1022
493.15	1017
493.278	1011
493.407	1012
493.535	1014
493.663	1016
493.792	1015
493.92	1013
494.049	1015
494.177	1020
494.305	1017
494.434	1018
494.562	1019
494.69	1013
494.818	1016
494.947	1017
495.075	1019
495.203	1017
495.332	1018
495.46	1020
495.588	1027
495.716	1023
495.845	1016
495.973	1021
496.101	1021
496.23	1019
496.358	1012
496.486	1017
496.614	1019
496.742	1024
496.871	1016
496.999	1017
497.127	1018
497.255	1016
497.384	1021
497.512	1015
497.64	1027
497.768	1018
497.896	1016
498.024	1014
498.153	1017
498.281	1017
498.409	1017
498.537	1021
498.665	1017
498.793	1024
498.922	1015
499.05	1027
499.178	1019
499.306	1021
499.434	1023
499.562	1017
499.69	1027
499.818	1017
499.947	1023
500.075	1024
500.203	1023
500.331	1028
500.459	1017
500.587	1022
500.715	1018
500.843	1015
500.971	1021
501.099	1013
501.227	1020
501.355	1022
501.483	1026
501.611	1022
501.739	1016
501.867	1017
501.995	1017
502.123	1025
502.251	1020
502.379	1014
502.507	1021
502.635	1017
502.763	1019
502.891	1011
503.019	1021
503.147	1016
503.275	1017
503.403	1024
503.531	1026
503.659	1022
503.787	1018
503.915	1022
504.043	1014
504.171	1026
504.299	1019
504.426	1020
504.554	1021
504.682	1022
504.81	1026
504.938	1023
505.066	1019
505.194	1024
505.322	1024
505.449	1019
505.577	1024
505.705	1016
505.833	1020
505.961	1026
506.089	1021
506.217	1020
506.344	1027
506.472	1020
506.6	1020
506.728	1013
506.856	1011
506.983	1026
507.111	1014
507.239	1022
507.367	1022
507.495	1015
507.622	1016
507.75	1019
507.878	1023
508.006	1024
508.133	1025
508.261	1023
508.389	1020
508.516	1020
508.644	1012
508.772	1014
508.9	1026
509.027	1022
509.155	1022
509.283	1024
509.41	1017
509.538	1022
509.666	1023
509.793	1020
509.921	1023
510.049	1025
510.176	1020
510.304	1020
510.432	1026
510.559	1022
510.687	1018
510.815	1020
510.942	1018
511.07	1020
511.197	1024
511.325	1021
511.453	1023
511.58	1019
511.708	1028
511.835	1022
511.963	1019
512.091	1021
512.218	1021
512.346	1015
512.473	1019
512.601	1020
512.728	1025
512.856	1022
512.983	1018
513.111	1023
513.238	1026
513.366	1022
513.494	1025
513.621	1015
513.749	1024
513.876	1022
514.003	1017
514.131	1020
514.258	1023
514.386	1027
514.513	1019
514.641	1022
514.768	1026
514.896	1020
515.023	1026
515.151	1028
515.278	1024
515.405	1020
515.533	1018
515.66	1020
515.788	1022
515.915	1028
516.042	1022
516.17	1023
516.297	1018
516.425	1023
516.552	1015
516.679	1024
516.807	1023
516.934	1024
517.061	1020
517.189	1013
517.316	1017
517.443	1015
517.571	1010
517.698	1025
517.825	1026
517.953	1017
518.08	1014
518.207	1019
518.335	1020
518.462	1024
518.589	1021
518.716	1021
518.844	1020
518.971	1027
519.098	1021
519.226	1014
519.353	1020
519.48	1025
519.607	1022
519.734	1023
519.862	1026
519.989	1025
520.116	1023
520.243	1024
520.371	1027
520.498	1016
520.625	1023
520.752	1021
520.879	1026
521.006	1020
521.134	1024
521.261	1020
521.388	1022
521.515	1024
521.642	1023
521.769	1016
521.896	1024
522.024	1021
522.151	1024
522.278	1020
522.405	1024
522.532	1020
522.659	1026
522.786	1032
522.913	1024
523.04	1023
523.167	1021
523.295	1017
523.422	1024
523.549	1021
523.676	1025
523.803	1019
523.93	1024
524.057	1014
524.184	1028
524.311	1021
524.438	1017
524.565	1017
524.692	1027
524.819	1023
524.946	1022
525.073	1020
525.2	1023
525.327	1024
525.454	1026
525.581	1026
525.708	1028
525.835	1028
525.962	1023
526.088	1025
526.215	1023
526.342	1021
526.469	1025
526.596	1025
526.723	1027
526.85	1021
526.977	1021
527.104	1024
527.231	1018
527.358	1022
527.484	1026
527.611	1026
527.738	1024
527.865	1024
527.992	1020
528.119	1026
528.246	1026
528.372	1023
528.499	1026
528.626	1016
528.753	1027
528.88	1019
529.006	1019
529.133	1018
529.26	1016
529.387	1031
529.514	1021
529.64	1014
529.767	1029
529.894	1020
530.021	1030
530.147	1023
530.274	1021
530.401	1024
530.528	1024
530.654	1022
530.781	1024
530.908	1015
531.034	1026
531.161	1029
531.288	1029
531.414	1027
531.541	1024
531.668	1030
531.795	1026
531.921	1023
532.048	1026
532.174	1017
532.301	1028
532.428	1024
532.554	1018
532.681	1027
532.808	1014
532.934	1019
533.061	1024
533.187	1029
533.314	1013
533.441	1030
533.567	1028
533.694	1025
533.82	1019
533.947	1025
534.074	1024
534.2	1025
534.327	1026
534.453	1024
534.58	1022
534.706	1026
534.833	1030
534.959	1020
535.086	1025
535.212	1025
535.339	1024
535.465	1021
535.592	1024
535.718	1028
535.845	1028
535.971	1026
536.098	1022
536.224	1024
536.351	1021
536.477	1033
536.604	1019
536.73	1021
536.856	1027
536.983	1027
537.109	1024
537.236	1026
537.362	1024
537.488	1025
537.615	1016
537.741	1024
537.868	1028
537.994	1022
538.12	1024
538.247	1027
538.373	1019
538.499	1031
538.626	1020
538.752	1025
538.878	1021
539.005	1024
539.131	1024
539.257	1022
539.384	1019
539.51	1026
539.636	1026
539.763	1026
539.889	1019
540.015	1020
540.141	1026
540.268	1031
540.394	1022
540.52	1017
540.646	1024
540.773	1023
540.899	1022
541.025	1025
541.151	1022
541.278	1015
541.404	1023
541.53	1024
541.656	1020
541.782	1022
541.909	1024
542.035	1024
542.161	1027
542.287	1024
542.413	1025
542.539	1024
542.665	1024
542.792	1025
542.918	1026
543.044	1029
543.17	1023
543.296	1028
543.422	1027
543.548	1026
543.674	1026
543.801	1025
543.927	1024
544.053	1024
544.179	1025
544.305	1021
544.431	1021
544.557	1027
544.683	1021
544.809	1021
544.935	1031
545.061	1020
545.187	1022
545.313	1028
545.439	1023
545.565	1024
545.691	1026
545.817	1027
545.943	1024
546.069	1024
546.195	1024
546.321	1031
546.447	1026
546.573	1031
546.699	1029
546.825	1018
546.951	1019
547.077	1035
547.203	1027
547.329	1023
547.454	1023
547.58	1018
547.706	1024
547.832	1021
547.958	1027
548.084	1027
548.21	1020
548.336	1033
548.462	1021
548.587	1025
548.713	1027
548.839	1024
548.965	1018
549.091	1014
549.217	1030
549.342	1025
549.468	1020
549.594	1022
549.72	1021
549.846	1027
549.971	1027
550.097	1022
550.223	1023
550.349	1021
550.474	1028
550.6	1030
550.726	1025
550.852	1018
550.977	1023
551.103	1023
551.229	1022
551.355	1020
551.48	1025
551.606	1031
551.732	1023
551.857	1024
551.983	1016
552.109	1020
552.234	1022
552.36	1021
552.486	1028
552.611	1021
552.737	1022
552.863	1018
552.988	1024
553.114	1023
553.24	1021
553.365	1023
553.491	1025
553.616	1021
553.742	1031
553.868	1023
553.993	1027
554.119	1028
554.244	1022
554.37	1033
554.495	1027
554.621	1019
554.746	1022
554.872	1018
554.998	1030
555.123	1027
555.249	1024
555.374	1024
555.5	1026
555.625	1025
555.751	1018
555.876	1024
556.002	1024
556.127	1012
556.252	1025
556.378	1029
556.503	1024
556.629	1022
556.754	1025
556.88	1029
557.005	1025
557.131	1027
557.256	1019
557.381	1027
557.507	1027
557.632	1033
557.758	1013
557.883	1024
558.008	1028
558.134	1020
558.259	1021
558.384	1020
558.51	1026
558.635	1025
558.76	1029
558.886	1024
559.011	1028
559.136	1017
559.262	1023
559.387	1016
559.512	1018
559.638	1028
559.763	1027
559.888	1021
560.013	1019
560.139	1018
560.264	1019
560.389	1035
560.514	1024
560.64	1023
560.765	1026
560.89	1017
561.015	1032
561.141	1019
561.266	1021
561.391	1032
561.516	1028
561.641	1016
561.767	1022
561.892	1025
562.017	1022
562.142	1016
562.267	1026
562.392	1022
562.518	1021
562.643	1021
562.768	1023
562.893	1024
563.018	1027
563.143	1027
563.268	1029
563.393	1031
563.518	1024
563.644	1025
563.769	1024
563.894	1020
564.019	1029
564.144	1028
564.269	1026
564.394	1021
564.519	1032
564.644	1020
564.769	1028
564.894	1020
565.019	1024
565.144	1028
565.269	1024
565.394	1030
565.519	1018
565.644	1024
565.769	1016
565.894	1034
566.019	1019
566.144	1029
566.269	1028
566.394	1030
566.519	1031
566.644	1042
566.769	1024
566.893	1025
567.018	1022
567.143	1028
567.268	1021
567.393	1021
567.518	1025
567.643	1024
567.768	1026
567.893	1031
568.017	1024
568.142	1029
568.267	1016
568.392	1026
568.517	1026
568.642	1024
568.766	1027
568.891	1022
569.016	1024
569.141	1021
569.266	1031
569.39	1019
569.515	1022
569.64	1024
569.765	1029
569.889	1020
570.014	1022
570.139	1019
570.264	1022
570.388	1028
570.513	1020
570.638	1023
570.762	1027
570.887	1028
571.012	1030
571.137	1024
571.261	1024
571.386	1028
571.511	1027
571.635	1018
571.76	1023
571.885	1018
572.009	1024
572.134	1022
572.258	1016
572.383	1023
572.508	1021
572.632	1026
572.757	1024
572.881	1025
573.006	1024
573.131	1031
573.255	1024
573.38	1019
573.504	1031
573.629	1018
573.753	1026
573.878	1024
574.003	1017
574.127	1029
574.252	1027
574.376	1026
574.501	1024
574.625	1026
574.75	1022
574.874	1026
574.999	1024
575.123	1024
575.248	1023
575.372	1022
575.496	1027
575.621	1024
575.745	1024
575.87	1023
575.994	1024
576.119	1024
576.243	1027
576.367	1026
576.492	1026
576.616	1029
576.741	1028
576.865	1026
576.989	1019
577.114	1025
577.238	1025
577.362	1026
577.487	1028
577.611	1024
577.735	1020
577.86	1025
577.984	1018
578.108	1022
578.233	1025
578.357	1027
578.481	1027
578.606	1021
578.73	1021
578.854	1020
578.978	1025
578.977	1018
579.106	1023
579.234	1021
579.362	1023
579.491	1024
579.619	1021
579.747	1030
579.875	1013
580.004	1025
580.132	1026
580.26	1020
580.388	1026
580.517	1018
580.645	1028
580.773	1026
580.901	1025
581.03	1022
581.158	1026
581.286	1023
581.414	1022
581.542	1025
581.671	1026
581.799	1018
581.927	1023
582.055	1028
582.183	1016
582.312	1029
582.44	1030
582.568	1030
582.696	1016
582.824	1024
582.952	1025
583.08	1025
583.209	1028
583.337	1022
583.465	1026
583.593	1025
583.721	1028
583.849	1028
583.977	1021
584.105	1023
584.233	1025
584.362	1027
584.49	1023
584.618	1019
584.746	1020
584.874	1027
585.002	1024
585.13	1026
585.258	1027
585.386	1026
585.514	1023
585.642	1026
585.77	1026
585.898	1025
586.026	1029
586.154	1023
586.282	1027
586.41	1028
586.538	1023
586.666	1022
586.794	1027
586.922	1029
587.05	1026
587.178	1024
587.306	1035
587.434	1028
587.562	1029
587.69	1031
587.818	1031
587.946	1040
588.074	1030
588.202	1028
588.33	1024
588.458	1026
588.586	1029
588.714	1028
588.842	1031
588.97	1032
589.097	1025
589.225	1026
589.353	1026
589.481	1032
589.609	1027
589.737	1037
589.865	1027
589.993	1029
590.121	1032
590.248	1027
590.376	1035
590.504	1035
590.632	1038
590.76	1030
590.888	1032
591.015	1035
591.143	1032
591.271	1029
591.399	1031
591.527	1032
591.655	1028
591.782	1035
591.91	1026
592.038	1029
592.166	1037
592.294	1031
592.421	1041
592.549	1031
592.677	1034
592.805	1031
592.932	1035
593.06	1034
593.188	1034
593.316	1030
593.443	1037
593.571	1033
593.699	1034
593.826	1044
593.954	1041
594.082	1040
594.21	1031
594.337	1038
594.465	1032
594.593	1035
594.72	1030
594.848	1043
594.976	1038
595.103	1038
595.231	1043
595.359	1045
595.486	1034
595.614	1042
595.742	1047
595.869	1042
595.997	1044
596.124	1046
596.252	1044
596.38	1041
596.507	1042
596.635	1038
596.763	1047
596.89	1043
597.018	1033
597.145	1042
597.273	1045
597.4	1044
597.528	1034
597.656	1035
597.783	1046
597.911	1043
598.038	1047
598.166	1039
598.293	1044
598.421	1043
598.548	1047
598.676	1052
598.803	1046
598.931	1049
599.058	1044
599.186	1049
599.313	1046
599.441	1041
599.568	1043
599.696	1053
599.823	1049
599.951	1047
600.078	1039
600.206	1053
600.333	1051
600.461	1062
600.588	1047
600.715	1053
600.843	1055
600.97	1049
601.098	1054
601.225	1049
601.353	1053
601.48	1049
601.607	1049
601.735	1053
601.862	1047
601.99	1044
602.117	1044
602.244	1048
602.372	1055
602.499	1054
602.626	1042
602.754	1049
602.881	1055
603.008	1054
603.136	1060
603.263	1049
603.39	1060
603.518	1054
603.645	1055
603.772	1058
603.9	1065
604.027	1058
604.154	1055
604.281	1060
604.409	1054
604.536	1055
604.663	1065
604.791	1059
604.918	1066
605.045	1054
605.172	1065
605.3	1065
605.427	1065
605.554	1058
605.681	1051
605.809	1065
605.936	1057
606.063	1071
606.19	1061
606.317	1061
606.445	1060
606.572	1069
606.699	1069
606.826	1065
606.953	1067
607.08	1066
607.208	1070
607.335	1074
607.462	1067
607.589	1068
607.716	1073
607.843	1074
607.97	1064
608.098	1069
608.225	1074
608.352	1071
608.479	1065
608.606	1067
608.733	1069
608.86	1070
608.987	1073
609.114	1074
609.241	1077
609.369	1064
609.496	1069
609.623	1069
609.75	1065
609.877	1079
610.004	1079
610.131	1075
610.258	1076
610.385	1073
610.512	1088
610.639	1068
610.766	1076
610.893	1089
611.02	1077
611.147	1078
611.274	1077
611.401	1074
611.528	1077
611.655	1083
611.782	1074
611.909	1094
612.036	1070
612.163	1083
612.29	1070
612.417	1077
612.543	1092
612.67	1093
612.797	1087
612.924	1086
613.051	1097
613.178	1088
613.305	1086
613.432	1093
613.559	1080
613.686	1090
613.813	1100
613.939	1083
614.066	1084
614.193	1092
614.32	1096
614.447	1100
614.574	1099
614.701	1089
614.827	1095
614.954	1103
615.081	1091
615.208	1092
615.335	1100
615.461	1100
615.588	1103
615.715	1111
615.842	1098
615.969	1111
616.095	1103
616.222	1120
616.349	1099
616.476	1098
616.602	1105
616.729	1109
616.856	1095
616.983	1120
617.109	1102
617.236	1092
617.363	1104
617.49	1114
617.616	1102
617.743	1116
617.87	1104
617.996	1113
618.123	1101
618.25	1110
618.376	1102
618.503	1108
618.63	1112
618.756	1124
618.883	1109
619.01	1113
619.136	1122
619.263	1131
619.39	1109
619.516	1118
619.643	1115
619.769	1131
619.896	1119
620.023	1128
620.149	1113
620.276	1116
620.402	1123
620.529	1133
620.656	1124
620.782	1129
620.909	1132
621.035	1120
621.162	1118
621.288	1117
621.415	1112
621.541	1121
621.668	1134
621.795	1128
621.921	1138
622.048	1114
622.174	1145
622.301	1122
622.427	1139
622.554	1141
622.68	1131
622.807	1142
622.933	1141
623.059	1141
623.186	1153
623.312	1125
623.439	1138
623.565	1137
623.692	1148
623.818	1146
623.945	1158
624.071	1149
624.197	1147
624.324	1135
624.45	1134
624.577	1137
624.703	1147
624.829	1136
624.956	1149
625.082	1165
625.209	1145
625.335	1156
625.461	1149
625.588	1146
625.714	1162
625.84	1160
625.967	1153
626.093	1168
626.219	1175
626.346	1176
626.472	1159
626.598	1168
626.725	1161
626.851	1174
626.977	1159
627.103	1172
627.23	1185
627.356	1167
627.482	1176
627.608	1156
627.735	1180
627.861	1172
627.987	1171
628.113	1167
628.24	1180
628.366	1178
628.492	1171
628.618	1173
628.745	1173
628.871	1179
628.997	1184
629.123	1188
629.249	1203
629.376	1192
629.502	1195
629.628	1184
629.754	1203
629.88	1196
630.006	1190
630.132	1189
630.259	1213
630.385	1206
630.511	1187
630.637	1209
630.763	1204
630.889	1212
631.015	1187
631.141	1192
631.268	1198
631.394	1208
631.52	1203
631.646	1202
631.772	1218
631.898	1211
632.024	1204
632.15	1222
632.276	1220
632.402	1226
632.528	1234
632.654	1219
632.78	1225
632.906	1222
633.032	1226
633.158	1220
633.284	1243
633.41	1248
633.536	1225
633.662	1231
633.788	1235
633.914	1234
634.04	1245
634.166	1232
634.292	1250
634.418	1260
634.544	1257
634.67	1256
634.796	1252
634.922	1251
635.048	1245
635.173	1267
635.299	1245
635.425	1263
635.551	1263
635.677	1264
635.803	1264
635.929	1277
636.055	1269
636.181	1264
636.306	1264
636.432	1292
636.558	1269
636.684	1292
636.81	1266
636.936	1286
637.061	1290
637.187	1292
637.313	1281
637.439	1282
637.565	1286
637.69	1282
637.816	1312
637.942	1292
638.068	1288
638.193	1305
638.319	1287
638.445	1286
638.571	1301
638.696	1298
638.822	1309
638.948	1319
639.074	1320
639.199	1300
639.325	1316
639.451	1322
639.577	1341
639.702	1328
639.828	1336
639.954	1344
640.079	1348
640.205	1327
640.331	1347
640.456	1317
640.582	1335
640.708	1350
640.833	1334
640.959	1359
641.084	1353
641.21	1377
641.336	1358
641.461	1369
641.587	1379
641.712	1376
641.838	1364
641.964	1385
642.089	1412
642.215	1390
642.34	1406
642.466	1384
642.592	1370
642.717	1389
642.843	1394
642.968	1402
643.094	1407
643.219	1394
643.345	1416
643.47	1390
643.596	1426
643.721	1433
643.847	1447
643.972	1434
644.098	1452
644.223	1446
644.349	1442
644.474	1460
644.6	1445
644.725	1443
644.85	1467
644.976	1460
645.101	1454
645.227	1464
645.352	1489
645.478	1466
645.603	1494
645.728	1489
645.854	1502
645.979	1501
646.105	1499
646.23	1503
646.355	1502
646.481	1517
646.606	1485
646.731	1510
646.857	1543
646.982	1540
647.107	1528
647.233	1572
647.358	1542
647.483	1564
647.609	1580
647.734	1579
647.859	1578
647.985	1587
648.11	1591
648.235	1608
648.36	1602
648.486	1593
648.611	1611
648.736	1648
648.862	1613
648.987	1631
649.112	1629
649.237	1666
649.362	1662
649.488	1673
649.613	1671
649.738	1669
649.863	1666
649.988	1688
650.114	1673
650.239	1675
650.364	1724
650.489	1738
650.614	1729
650.74	1758
650.865	1793
650.99	1771
651.115	1784
651.24	1793
651.365	1768
651.49	1799
651.615	1800
651.741	1789
651.866	1812
651.991	1862
652.116	1857
652.241	1852
652.366	1843
652.491	1861
652.616	1859
652.741	1860
652.866	1853
652.991	1885
653.116	1894
653.241	1849
653.366	1919
653.491	1901
653.616	1878
653.741	1914
653.866	1923
653.991	1924
654.116	1897
654.241	1938
654.366	1924
654.491	1939
654.616	1904
654.741	1926
654.866	1968
654.991	1964
655.116	1949
655.241	1995
655.366	1985
655.491	2036
655.616	2004
655.741	2025
655.866	2105
655.99	2125
656.115	2099
656.24	2115
656.365	2176
656.49	2141
656.615	2135
656.74	2217
656.865	2203
656.989	2241
657.114	2233
657.239	2258
657.364	2269
657.489	2355
657.614	2291
657.738	2253
657.863	2340
657.988	2323
658.113	2299
658.238	2375
658.362	2360
658.487	2376
658.612	2409
658.737	2422
658.861	2440
658.986	2476
659.111	2429
659.236	2445
659.36	2462
659.485	2500
659.61	2541
659.734	2533
659.859	2534
659.984	2607
660.108	2584
660.233	2640
660.358	2695
660.482	2686
660.607	2700
660.732	2780
660.856	2750
660.981	2850
661.106	2862
661.23	2884
661.355	2892
661.48	2966
661.604	2925
661.729	2961
661.853	2972
661.978	3032
662.103	3044
662.227	3115
662.352	3076
662.476	3162
662.601	3114
662.725	3189
662.85	3203
662.974	3192
663.099	3193
663.224	3244
663.348	3229
663.473	3292
663.597	3308
663.722	3333
663.846	3439
663.971	3331
664.095	3406
664.219	3375
664.344	3384
664.468	3396
664.593	3504
664.717	3537
664.842	3506
664.966	3508
665.091	3555
665.215	3581
665.339	3673
665.464	3543
665.588	3622
665.713	3668
665.837	3733
665.961	3675
666.086	3700
666.21	3726
666.335	3742
666.459	3754
666.583	3787
666.708	3759
666.832	3805
666.956	3823
667.081	3843
667.205	3835
667.329	3846
667.454	3848
667.578	3864
667.702	3918
667.826	3898
667.951	3865
668.075	3899
668.199	3921
668.324	3867
668.448	3921
668.572	3977
668.696	3939
668.82	3967
668.945	3953
669.069	3970
669.193	3964
669.317	3984
669.442	4007
669.566	3956
669.69	3999
669.814	4056
669.938	4078
670.062	4092
670.187	4074
670.311	4170
670.435	4218
670.559	4283
670.683	4307
670.807	4405
670.931	4356
671.056	4441
671.18	4543
671.304	4626
671.428	4642
671.552	4671
671.676	4791
671.8	4840
671.924	4856
672.048	4902
672.172	4929
672.296	4988
672.42	5078
672.544	5106
672.669	5181
672.793	5153
672.917	5264
673.041	5381
673.165	5449
673.289	5400
673.413	5649
673.537	5595
673.661	5587
673.785	5774
673.908	5809
674.032	5906
674.156	5994
674.28	6014
674.404	6084
674.528	6128
674.652	6247
674.776	6342
674.9	6260
675.024	6357
675.148	6373
675.272	6444
675.396	6587
675.519	6389
675.643	6553
675.767	6516
675.891	6505
676.015	6502
676.139	6512
676.263	6508
676.386	6509
676.51	6480
676.634	6513
676.758	6398
676.882	6404
677.005	6348
677.129	6375
677.253	6302
677.377	6252
677.501	6150
677.624	6156
677.748	6102
677.872	5966
677.996	6100
678.119	6034
678.243	5867
678.367	5905
678.491	5824
678.614	5771
678.738	5718
678.862	5677
678.985	5637
679.109	5629
679.233	5575
679.356	5476
679.48	5442
679.604	5422
679.727	5384
679.851	5299
679.975	5266
680.098	5212
680.222	5136
680.346	5185
680.469	5102
680.593	5025
680.716	5034
680.84	5043
680.963	5016
681.087	4971
681.211	4983
681.334	4932
681.458	4904
681.581	4847
681.705	4879
681.828	4807
681.952	4922
682.075	4816
682.199	4781
682.322	4889
682.446	4893
682.569	4902
682.693	4907
682.816	4967
682.94	5096
683.063	5191
683.187	5207
683.31	5372
683.434	5561
683.557	5760
683.681	6031
683.804	6538
683.928	7035
684.051	7512
684.174	8000
684.298	8869
684.421	9564
684.545	10531
684.668	11466
684.791	12463
684.915	13422
685.038	14365
685.161	15166
685.285	16213
685.408	16943
685.531	17763
685.655	18338
685.778	18987
685.901	19802
686.025	20361
686.148	20849
686.271	21782
686.395	22185
686.518	22771
686.641	23246
686.764	23977
686.888	24391
687.011	24818
687.134	25234
687.257	25553
687.381	25973
687.504	25966
687.627	26336
687.75	26137
687.873	26220
687.997	26343
688.12	26347
688.243	26259
688.366	26077
688.489	26011
688.613	25618
688.736	25559
688.859	25177
688.982	24980
689.105	24652
689.228	24061
689.351	23625
689.475	23386
689.598	22848
689.721	22493
689.844	22266
689.967	21730
690.09	21099
690.213	20737
690.336	20359
690.459	19804
690.582	19383
690.705	18918
690.828	18540
690.951	18276
691.074	17841
691.197	17489
691.32	17104
691.443	16916
691.566	16609
691.689	16503
691.812	16352
691.935	16109
692.058	16126
692.181	16112
692.304	15811
692.427	15819
692.55	15772
692.673	15718
692.796	15748
692.919	15563
693.042	15372
693.165	15373
693.288	15163
693.411	15240
693.533	15229
693.656	15289
693.779	15148
693.902	15072
694.025	15065
694.148	14834
694.271	14639
694.393	14494
694.516	14423
694.639	14357
694.762	14196
694.885	14167
695.008	13933
695.13	13853
695.253	13963
695.376	13809
695.499	13663
695.622	13819
695.744	13691
695.867	13598
695.99	13691
696.113	13657
696.235	13605
696.358	13591
696.481	13557
696.603	13434
696.726	13489
696.849	13613
696.972	13761
697.094	13845
697.217	13694
697.34	13806
697.462	13860
697.585	13782
697.708	13696
697.83	13878
697.953	13815
698.075	13749
698.198	13516
698.321	13621
698.443	13533
698.566	13517
698.688	13437
698.811	13524
698.934	13288
699.056	13322
699.179	13133
699.301	13147
699.424	13238
699.546	13083
699.669	12941
699.792	12919
699.914	12890
700.037	12816
700.159	12662
700.282	12544
700.404	12498
700.527	12381
700.649	12275
700.772	12272
700.894	11915
701.016	11907
701.139	11861
701.261	11776
701.384	11455
701.506	11528
701.629	11424
701.751	11273
701.873	11228
701.996	11160
702.118	10981
702.241	10999
702.363	10878
702.485	10872
702.608	10835
702.73	10895
702.853	10765
702.975	10787
703.097	10753
703.22	10798
703.342	10819
703.464	10866
703.587	10775
703.709	11040
703.831	10924
703.953	10976
704.076	10973
704.198	11053
704.32	11122
704.442	11252
704.565	11151
704.687	11373
704.809	11468
704.931	11501
705.054	11585
705.176	11741
705.298	11683
705.42	11749
705.543	11840
705.665	11877
705.787	11882
705.909	12010
706.031	12056
706.025	12459
706.151	12423
706.278	12486
706.404	12716
706.531	12624
706.657	12576
706.783	12679
706.91	12684
707.036	12666
707.162	12678
707.289	12664
707.415	12598
707.541	12443
707.668	12461
707.794	12600
707.92	12480
708.047	12456
708.173	12405
708.299	12368
708.426	12351
708.552	12316
708.678	12242
708.805	12155
708.931	12050
709.057	12000
709.183	11799
709.31	11900
709.436	11663
709.562	11678
709.688	11509
709.815	11396
709.941	11281
710.067	11306
710.193	11069
710.32	11050
710.446	11058
710.572	10763
710.698	10860
710.824	10548
710.951	10633
711.077	10539
711.203	10462
711.329	10368
711.455	10272
711.581	10128
711.708	10238
711.834	10180
711.96	10084
712.086	10134
712.212	9971
712.338	9989
712.464	9938
712.591	9897
712.717	9817
712.843	9974
712.969	9805
713.095	9830
713.221	9743
713.347	9753
713.473	9654
713.599	9702
713.725	9757
713.852	9714
713.978	9703
714.104	9777
714.23	9691
714.356	9805
714.482	9850
714.608	9867
714.734	9959
714.86	9851
714.986	10067
715.112	10140
715.238	10180
715.364	10186
715.49	10139
715.616	10376
715.742	10393
715.868	10461
715.994	10514
716.12	10574
716.246	10650
716.372	10738
716.498	10698
716.624	10821
716.75	10731
716.876	10700
717.002	10644
717.127	10519
717.253	10523
717.379	10430
717.505	10272
717.631	10306
717.757	10118
717.883	9834
718.009	9767
718.135	9615
718.261	9497
718.386	9234
718.512	9280
718.638	9095
718.764	9016
718.89	8764
719.016	8685
719.142	8562
719.267	8354
719.393	8290
719.519	8161
719.645	8058
719.771	7937
719.896	7940
720.022	7779
720.148	7723
720.274	7682
720.4	7658
720.525	7552
720.651	7459
720.777	7376
720.903	7417
721.029	7351
721.154	7250
721.28	7322
721.406	7251
721.531	7284
721.657	7218
721.783	7195
721.909	7151
722.034	7080
722.16	7092
722.286	7076
722.411	6943
722.537	7000
722.663	6875
722.789	6785
722.914	6768
723.04	6673
723.166	6597
723.291	6611
723.417	6483
723.542	6439
723.668	6430
723.794	6292
723.919	6166
724.045	6263
724.171	6111
724.296	6123
724.422	6035
724.547	5965
724.673	5817
724.799	5859
724.924	5804
725.05	5732
725.175	5616
725.301	5684
725.426	5655
725.552	5561
725.678	5457
725.803	5456
725.929	5436
726.054	5324
726.18	5327
726.305	5301
726.431	5318
726.556	5278
726.682	5269
726.807	5184
726.933	5247
727.058	5145
727.184	5030
727.309	5045
727.435	4998
727.56	4921
727.686	4984
727.811	4941
727.937	4901
728.062	4874
728.187	4793
728.313	4780
728.438	4809
728.564	4736
728.689	4775
728.815	4681
728.94	4732
729.065	4697
729.191	4689
729.316	4664
729.441	4636
729.567	4614
729.692	4594
729.818	4566
729.943	4566
730.068	4427
730.194	4506
730.319	4556
730.444	4472
730.57	4466
730.695	4460
730.82	4422
730.946	4448
731.071	4472
731.196	4368
731.321	4364
731.447	4388
731.572	4306
731.697	4314
731.823	4293
731.948	4324
732.073	4271
732.198	4243
732.324	4225
732.449	4256
732.574	4170
732.699	4208
732.825	4211
732.95	4202
733.075	4190
733.2	4190
733.325	4170
733.451	4137
733.576	4054
733.701	4131
733.826	4058
733.951	4004
734.077	4018
734.202	4073
734.327	4079
734.452	4010
734.577	3991
734.702	4003
734.827	3941
734.953	3996
735.078	3943
735.203	3953
735.328	3965
735.453	3922
735.578	3898
735.703	3888
735.828	3877
735.953	3826
736.078	3872
736.203	3883
736.329	3806
736.454	3861
736.579	3789
736.704	3879
736.829	3803
736.954	3851
737.079	3840
737.204	3799
737.329	3776
737.454	3796
737.579	3798
737.704	3795
737.829	3775
737.954	3722
738.079	3796
738.204	3762
738.329	3806
738.454	3797
738.579	3737
738.704	3743
738.829	3680
738.953	3679
739.078	3690
739.203	3703
739.328	3659
739.453	3648
739.578	3695
739.703	3668
739.828	3615
739.953	3615
740.078	3618
740.203	3604
740.327	3709
740.452	3633
740.577	3601
740.702	3578
740.827	3568
740.952	3648
741.077	3554
741.201	3542
741.326	3564
741.451	3536
741.576	3483
741.701	3528
741.825	3538
741.95	3488
742.075	3512
742.2	3433
742.325	3453
742.449	3471
742.574	3485
742.699	3438
742.824	3451
742.948	3444
743.073	3447
743.198	3455
743.323	3386
743.447	3407
743.572	3357
743.697	3363
743.821	3354
743.946	3344
744.071	3387
744.196	3346
744.32	3315
744.445	3327
744.57	3264
744.694	3334
744.819	3261
744.944	3317
745.068	3288
745.193	3228
745.318	3182
745.442	3251
745.567	3193
745.691	3272
745.816	3195
745.941	3262
746.065	3233
746.19	3137
746.314	3161
746.439	3208
746.564	3192
746.688	3206
746.813	3136
746.937	3116
747.062	3143
747.186	3116
747.311	3106
747.435	3107
747.56	3092
747.684	3142
747.809	3090
747.933	3118
748.058	3092
748.182	3053
748.307	3082
748.431	3064
748.556	3083
748.68	3056
748.805	3080
748.929	3029
749.054	3003
749.178	2998
749.303	2991
749.427	3063
749.552	2969
749.676	2994
749.8	2957
749.925	3007
750.049	2965
750.174	2958
750.298	2922
750.422	3014
750.547	2931
750.671	2970
750.796	2930
750.92	2879
751.044	2922
751.169	2885
751.293	2869
751.417	2815
751.542	2819
751.666	2878
751.79	2877
751.915	2863
752.039	2877
752.163	2859
752.287	2831
752.412	2842
752.536	2841
752.66	2824
752.785	2801
752.909	2812
753.033	2768
753.157	2848
753.282	2789
753.406	2742
753.53	2741
753.654	2750
753.779	2768
753.903	2793
754.027	2747
754.151	2755
754.275	2755
754.4	2746
754.524	2712
754.648	2736
754.772	2699
754.896	2738
755.02	2657
755.145	2688
755.269	2675
755.393	2659
755.517	2732
755.641	2682
755.765	2671
755.889	2613
756.013	2720
756.138	2673
756.262	2659
756.386	2674
756.51	2603
756.634	2610
756.758	2638
756.882	2592
757.006	2647
757.13	2579
757.254	2604
757.378	2633
757.502	2627
757.626	2612
757.75	2584
757.874	2592
757.998	2575
758.122	2554
758.246	2561
758.37	2544
758.494	2564
758.618	2542
758.742	2549
758.866	2539
758.99	2569
759.114	2540
759.238	2516
759.362	2509
759.486	2487
759.61	2520
759.734	2518
759.858	2470
759.982	2500
760.106	2505
760.23	2435
760.353	2497
760.477	2439
760.601	2478
760.725	2476
760.849	2476
760.973	2437
761.097	2456
761.221	2438
761.344	2463
761.468	2421
761.592	2388
761.716	2412
761.84	2452
761.963	2437
762.087	2450
762.211	2423
762.335	2402
762.459	2424
762.582	2437
762.706	2388
762.83	2370
762.954	2365
763.078	2390
763.201	2368
763.325	2347
763.449	2391
763.572	2376
763.696	2380
763.82	2371
763.944	2348
764.067	2332
764.191	2350
764.315	2335
764.438	2358
764.562	2372
764.686	2359
764.809	2350
764.933	2367
765.057	2330
765.18	2314
765.304	2293
765.428	2327
765.551	2294
765.675	2257
765.798	2333
765.922	2307
766.046	2309
766.169	2261
766.293	2284
766.416	2325
766.54	2318
766.664	2256
766.787	2257
766.911	2267
767.034	2275
767.158	2287
767.281	2286
767.405	2279
767.528	2220
767.652	2245
767.775	2230
767.899	2232
768.022	2220
768.146	2211
768.269	2211
768.393	2214
768.516	2240
768.64	2204
768.763	2203
768.887	2213
769.01	2192
769.134	2174
769.257	2164
769.381	2211
769.504	2176
769.627	2164
769.751	2188
769.874	2162
769.998	2191
770.121	2176
770.244	2152
770.368	2113
770.491	2177
770.614	2174
770.738	2172
770.861	2130
770.985	2092
771.108	2116
771.231	2149
771.355	2106
771.478	2093
771.601	2175
771.724	2121
771.848	2129
771.971	2113
772.094	2150
772.218	2113
772.341	2113
772.464	2125
772.587	2092
772.711	2085
772.834	2118
772.957	2088
773.08	2095
773.204	2045
773.327	2094
773.45	2064
773.573	2088
773.696	2069
773.82	2075
773.943	2056
774.066	2092
774.189	2033
774.312	2069
774.436	2060
774.559	2065
774.682	2044
774.805	2030
774.928	2010
775.051	2056
775.174	1995
775.297	2015
775.421	2024
775.544	2062
775.667	2022
775.79	2016
775.913	2034
776.036	1987
776.159	2020
776.282	1960
776.405	2012
776.528	2009
776.651	1988
776.774	1980
776.897	2014
777.02	1973
777.143	1981
777.266	1998
777.389	2026
777.512	1995
777.635	1991
777.758	1959
777.881	1969
778.004	1949
778.127	1955
778.25	1971
778.373	1952
778.496	1976
778.619	1952
778.742	1948
778.865	1941
778.988	1946
779.111	1944
779.234	1958
779.357	1935
779.48	1934
779.602	1945
779.725	1923
779.848	1886
779.971	1896
780.094	1932
780.217	1936
780.34	1909
780.462	1950
780.585	1874
780.708	1928
780.831	1927
780.954	1908
781.077	1932
781.199	1902
781.322	1901
781.445	1895
781.568	1916
781.691	1875
781.813	1904
781.936	1855
782.059	1896
782.182	1892
782.304	1900
782.427	1876
782.55	1850
782.672	1840
782.795	1880
782.918	1842
783.041	1867
783.163	1876
783.286	1859
783.409	1836
783.531	1844
783.654	1861
783.777	1827
783.899	1851
784.022	1813
784.145	1856
784.267	1847
784.39	1829
784.512	1842
784.635	1845
784.758	1803
784.88	1822
785.003	1814
785.125	1797
785.248	1808
785.371	1795
785.493	1801
785.616	1785
785.738	1764
785.861	1805
785.983	1779
786.106	1818
786.228	1803
786.351	1812
786.473	1827
786.596	1807
786.718	1804
786.841	1804
786.963	1812
787.086	1751
787.208	1783
787.331	1797
787.453	1781
787.576	1759
787.698	1760
787.821	1779
787.943	1798
788.066	1784
788.188	1752
788.31	1775
788.433	1753
788.555	1784
788.678	1787
788.8	1740
788.922	1722
789.045	1777
789.167	1737
789.289	1740
789.412	1745
789.534	1721
789.656	1754
789.779	1721
789.901	1748
790.023	1738
790.146	1754
790.268	1758
790.39	1733
790.513	1701
790.635	1735
790.757	1732
790.879	1743
791.002	1728
791.124	1736
791.246	1722
791.368	1725
791.491	1748
791.613	1734
791.735	1697
791.857	1697
791.98	1708
792.102	1718
792.224	1708
792.346	1696
792.468	1730
792.59	1712
792.713	1698
792.835	1745
792.957	1657
793.079	1699
793.201	1711
793.323	1705
793.446	1685
793.568	1678
793.69	1696
793.812	1637
793.934	1676
794.056	1733
794.178	1703
794.3	1687
794.422	1679
794.544	1716
794.666	1684
794.788	1704
794.91	1681
795.033	1682
795.155	1656
795.277	1678
795.399	1635
795.521	1675
795.643	1656
795.765	1669
795.887	1678
796.009	1686
796.131	1660
796.253	1680
796.374	1627
796.496	1661
796.618	1678
796.74	1651
796.862	1667
796.984	1651
797.106	1666
797.228	1652
797.35	1654
797.472	1664
797.594	1644
797.716	1658
797.837	1661
797.959	1679
798.081	1675
798.203	1659
798.325	1651
798.447	1622
798.569	1635
798.69	1645
798.812	1647
798.934	1638
799.056	1629
799.178	1634
799.299	1628
799.421	1652
799.543	1636
799.665	1619
799.787	1624
799.908	1637
800.03	1667
800.152	1624
800.274	1624
800.395	1614
800.517	1616
800.639	1626
800.76	1603
800.882	1610
801.004	1636
801.126	1615
801.247	1652
801.369	1626
801.491	1611
801.612	1641
801.734	1629
801.856	1631
801.977	1617
802.099	1615
802.22	1639
802.342	1586
802.464	1611
802.585	1606
802.707	1621
802.828	1625
802.95	1627
803.072	1587
803.193	1610
803.315	1588
803.436	1586
803.558	1570
803.679	1592
803.801	1576
803.922	1595
804.044	1567
804.165	1577
804.287	1567
804.408	1574
804.53	1583
804.651	1611
804.773	1580
804.894	1578
805.016	1562
805.137	1580
805.259	1586
805.38	1571
805.502	1575
805.623	1582
805.745	1616
805.866	1613
805.987	1574
806.109	1588
806.23	1599
806.352	1588
806.473	1577
806.594	1565
806.716	1587
806.837	1574
806.958	1567
807.08	1571
807.201	1567
807.322	1604
807.444	1570
807.565	1563
807.686	1549
807.808	1586
807.929	1545
808.05	1552
808.171	1557
808.293	1566
808.414	1554
808.535	1567
808.657	1562
808.778	1563
808.899	1549
809.02	1536
809.141	1540
809.263	1548
809.384	1564
809.505	1562
809.626	1576
809.747	1523
809.869	1562
809.99	1553
810.111	1552
810.232	1550
810.353	1545
810.474	1553
810.596	1537
810.717	1526
810.838	1560
810.959	1576
811.08	1553
811.201	1518
811.322	1553
811.443	1558
811.564	1563
811.686	1548
811.807	1536
811.928	1537
812.049	1546
812.17	1543
812.291	1552
812.412	1539
812.533	1540
812.654	1547
812.775	1521
812.896	1521
813.017	1527
813.138	1497
813.259	1518
813.38	1545
813.501	1526
813.622	1510
813.743	1540
813.864	1550
813.985	1529
814.105	1526
814.226	1541
814.347	1527
814.468	1533
814.589	1508
814.71	1528
814.831	1503
814.952	1518
815.073	1529
815.194	1502
815.314	1522
815.435	1503
815.556	1508
815.677	1507
815.798	1503
815.919	1502
816.039	1505
816.16	1489
816.281	1520
816.402	1503
816.523	1525
816.643	1519
816.764	1518
816.885	1502
817.006	1523
817.126	1502
817.247	1487
817.368	1494
817.489	1479
817.609	1507
817.73	1518
817.851	1482
817.971	1501
818.092	1499
818.213	1503
818.333	1504
818.454	1486
818.575	1513
818.695	1491
818.816	1508
818.937	1492
819.057	1474
819.178	1482
819.299	1492
819.419	1478
819.54	1480
819.66	1480
819.781	1502
819.902	1489
820.022	1482
820.143	1496
820.263	1504
820.384	1490
820.504	1478
820.625	1464
820.745	1509
820.866	1487
820.987	1469
821.107	1489
821.228	1494
821.348	1478
821.469	1471
821.589	1494
821.709	1468
821.83	1491
821.95	1478
822.071	1479
822.191	1492
822.312	1463
822.432	1485
822.553	1450
822.673	1460
822.793	1486
822.914	1454
823.034	1473
823.155	1454
823.275	1480
823.395	1431
823.516	1459
823.636	1492
823.756	1463
823.877	1468
823.997	1470
824.117	1485
824.238	1469
824.358	1475
824.478	1488
824.599	1461
824.719	1445
824.839	1467
824.959	1481
825.08	1456
825.2	1450
825.32	1491
825.44	1459
825.561	1435
825.681	1450
825.801	1454
825.921	1446
826.042	1469
826.162	1450
826.282	1471
826.402	1465
826.522	1440
826.643	1438
826.763	1454
826.883	1444
827.003	1458
827.123	1458
827.243	1465
827.363	1457
827.484	1449
827.604	1456
827.724	1447
827.844	1444
827.964	1461
828.084	1473
828.204	1443
828.324	1452
828.444	1436
828.564	1444
828.684	1425
828.804	1440
828.924	1448
829.044	1431
829.164	1450
829.284	1456
829.404	1448
829.524	1426
829.644	1459
829.764	1448
829.884	1438
830.004	1432
830.124	1437
830.244	1429
830.364	1458
830.484	1452
830.604	1421
830.724	1443
830.844	1469
830.964	1471
830.961	1437
831.086	1429
831.21	1451
831.334	1416
831.459	1422
831.583	1434
831.707	1427
831.832	1424
831.956	1454
832.08	1426
832.204	1432
832.329	1441
832.453	1410
832.577	1418
832.701	1412
832.826	1430
832.95	1415
833.074	1414
833.198	1454
833.323	1425
833.447	1435
833.571	1431
833.695	1449
833.819	1395
833.944	1421
834.068	1420
834.192	1398
834.316	1442
834.44	1427
834.564	1410
834.689	1428
834.813	1423
834.937	1419
835.061	1409
835.185	1426
835.309	1417
835.433	1423
835.558	1412
835.682	1430
835.806	1409
835.93	1404
836.054	1396
836.178	1405
836.302	1410
836.426	1409
836.55	1386
836.674	1411
836.798	1416
836.922	1416
837.046	1419
837.17	1412
837.295	1423
837.419	1410
837.543	1418
837.667	1382
837.791	1401
837.915	1416
838.039	1402
838.163	1386
838.287	1421
838.411	1409
838.535	1420
838.659	1437
838.782	1396
838.906	1386
839.03	1401
839.154	1388
839.278	1404
839.402	1435
839.526	1398
839.65	1433
839.774	1390
839.898	1395
840.022	1366
840.146	1404
840.27	1411
840.393	1396
840.517	1411
840.641	1370
840.765	1401
840.889	1390
841.013	1385
841.137	1408
841.261	1408
841.384	1392
841.508	1410
841.632	1400
841.756	1404
841.88	1398
842.004	1397
842.127	1385
842.251	1401
842.375	1396
842.499	1372
842.622	1407
842.746	1373
842.87	1407
842.994	1387
843.118	1400
843.241	1408
843.365	1388
843.489	1393
843.613	1404
843.736	1373
843.86	1365
843.984	1376
844.107	1363
844.231	1364
844.355	1399
844.479	1390
844.602	1377
844.726	1404
844.85	1405
844.973	1394
845.097	1373
845.221	1381
845.344	1382
845.468	1391
845.592	1390
845.715	1414
845.839	1375
845.962	1378
846.086	1382
846.21	1388
846.333	1368
846.457	1390
846.58	1392
846.704	1378
846.828	1389
846.951	1374
847.075	1376
847.198	1406
847.322	1381
847.445	1400
847.569	1390
847.693	1375
847.816	1377
847.94	1382
848.063	1387
848.187	1369
848.31	1380
848.434	1381
848.557	1382
848.681	1388
848.804	1375
848.928	1349
849.051	1379
849.175	1379
849.298	1369
849.421	1379
849.545	1364
849.668	1408
849.792	1380
849.915	1374
850.039	1386
850.162	1376
850.286	1356
850.409	1369
850.532	1352
850.656	1354
850.779	1388
850.902	1372
851.026	1365
851.149	1371
851.273	1366
851.396	1365
851.519	1356
851.643	1378
851.766	1356
851.889	1366
852.013	1378
852.136	1349
852.259	1383
852.383	1369
852.506	1368
852.629	1365
852.753	1363
852.876	1383
852.999	1358
853.122	1350
853.246	1361
853.369	1359
853.492	1354
853.615	1364
853.739	1379
853.862	1347
853.985	1362
854.108	1371
854.232	1354
854.355	1367
854.478	1354
854.601	1379
854.724	1345
854.848	1380
854.971	1345
855.094	1329
855.217	1349
855.34	1357
855.463	1366
855.587	1334
855.71	1340
855.833	1354
855.956	1376
856.079	1367
856.202	1380
856.325	1350
856.449	1370
856.572	1338
856.695	1353
856.818	1338
856.941	1370
857.064	1364
857.187	1374
857.31	1359
857.433	1348
857.556	1359
857.679	1341
857.802	1340
857.925	1362
858.048	1345
858.171	1365
858.294	1339
858.417	1351
858.54	1352
858.663	1334
858.786	1340
858.909	1358
859.032	1354
859.155	1364
859.278	1363
859.401	1356
859.524	1353
859.647	1342
859.77	1353
859.893	1340
860.016	1340
860.139	1348
860.262	1349
860.385	1333
860.508	1364
860.631	1350
860.754	1329
860.876	1339
860.999	1346
861.122	1356
861.245	1354
861.368	1337
861.491	1333
861.614	1326
861.736	1346
861.859	1340
861.982	1347
862.105	1344
862.228	1351
862.351	1344
862.473	1349
862.596	1371
862.719	1321
862.842	1363
862.965	1336
863.087	1352
863.21	1342
863.333	1332
863.456	1332
863.578	1340
863.701	1318
863.824	1338
863.947	1346
864.069	1327
864.192	1352
864.315	1341
864.438	1379
864.56	1340
864.683	1358
864.806	1354
864.928	1335
865.051	1339
865.174	1307
865.296	1343
865.419	1353
865.542	1355
865.664	1319
865.787	1328
865.91	1337
866.032	1339
866.155	1345
866.277	1335
866.4	1350
866.523	1323
866.645	1322
866.768	1344
866.89	1336
867.013	1342
867.136	1339
867.258	1345
867.381	1351
867.503	1337
867.626	1333
867.748	1338
867.871	1346
867.993	1330
868.116	1336
868.238	1313
868.361	1324
868.483	1335
868.606	1338
868.728	1350
868.851	1328
868.973	1334
869.096	1336
869.218	1308
869.341	1330
869.463	1326
869.586	1331
869.708	1334
869.83	1320
869.953	1314
870.075	1316
870.198	1330
870.32	1324
870.442	1314
870.565	1321
870.687	1326
870.81	1334
870.932	1347
871.054	1317
871.177	1332
871.299	1328
871.421	1314
871.544	1329
871.666	1318
871.788	1315
871.911	1316
872.033	1311
872.155	1318
872.278	1323
872.4	1333
872.522	1322
872.645	1324
872.767	1299
872.889	1306
873.011	1323
873.134	1322
873.256	1313
873.378	1298
873.5	1305
873.623	1327
873.745	1320
873.867	1318
873.989	1295
874.111	1332
874.234	1327
874.356	1321
874.478	1326
874.6	1323
874.722	1310
874.845	1317
874.967	1328
875.089	1319
875.211	1319
875.333	1331
875.455	1330
875.577	1333
875.7	1335
875.822	1313
875.944	1328
876.066	1316
876.188	1329
876.31	1308
876.432	1339
876.554	1328
876.676	1310
876.798	1289
876.92	1315
877.042	1337
877.164	1303
877.287	1296
877.409	1323
877.531	1321
877.653	1311
877.775	1309
877.897	1313
878.019	1308
878.141	1327
878.263	1322
878.385	1307
878.507	1320
878.628	1326
878.75	1301
878.872	1303
878.994	1299
879.116	1318
879.238	1307
879.36	1313
879.482	1302
879.604	1310
879.726	1306
879.848	1323
879.97	1322
880.092	1300
880.213	1306
880.335	1314
880.457	1296
880.579	1278
880.701	1294
880.823	1290
880.945	1335
881.066	1299
881.188	1316
881.31	1295
881.432	1319
881.554	1290
881.675	1276
881.797	1323
881.919	1313
882.041	1291
882.163	1309
882.284	1298
882.406	1299
882.528	1298
882.65	1299
882.771	1316
882.893	1330
883.015	1288
883.137	1278
883.258	1302
883.38	1305
883.502	1297
883.623	1300
883.745	1296
883.867	1297
883.988	1318
884.11	1283
884.232	1284
884.353	1301
884.475	1314
884.597	1320
884.718	1301
884.84	1287
884.962	1271
885.083	1302
885.205	1309
885.326	1307
885.448	1290
885.57	1277
885.691	1286
885.813	1287
885.934	1299
886.056	1288
886.177	1275
886.299	1282
886.421	1293
886.542	1278
886.664	1301
886.785	1281
886.907	1284
887.028	1295
887.15	1301
887.271	1290
887.393	1281
887.514	1297
887.636	1308
887.757	1284
887.879	1292
888	1294
888.121	1293
888.243	1290
888.364	1292
888.486	1284
888.607	1277
888.729	1278
888.85	1290
888.971	1280
889.093	1289
889.214	1268
889.336	1275
889.457	1301
889.578	1299
889.7	1277
889.821	1279
889.942	1300
890.064	1273
890.185	1287
890.306	1296
890.428	1284
890.549	1266
890.67	1276
890.792	1270
890.913	1285
891.034	1285
891.156	1281
891.277	1290
891.398	1289
891.519	1275
891.641	1281
891.762	1282
891.883	1265
892.004	1253
892.126	1278
892.247	1301
892.368	1276
892.489	1274
892.61	1316
892.732	1275
892.853	1279
892.974	1286
893.095	1277
893.216	1297
893.337	1284
893.459	1292
893.58	1281
893.701	1262
893.822	1271
893.943	1268
894.064	1244
894.185	1285
894.306	1255
894.428	1286
894.549	1280
894.67	1278
894.791	1273
894.912	1268
895.033	1264
895.154	1277
895.275	1275
895.396	1289
895.517	1250
895.638	1247
895.759	1268
895.88	1254
896.001	1261
896.122	1255
896.243	1266
896.364	1276
896.485	1268
896.606	1262
896.727	1264
896.848	1258
896.969	1269
897.09	1255
897.211	1248
897.332	1280
897.453	1259
897.574	1256
897.695	1286
897.816	1260
897.936	1264
898.057	1265
898.178	1261
898.299	1260
898.42	1253
898.541	1266
898.662	1280
898.783	1248
898.903	1251
899.024	1253
899.145	1243
899.266	1244
899.387	1259
899.507	1246
899.628	1251
899.749	1262
899.87	1252
899.991	1260
900.111	1243
900.232	1260
900.353	1260
900.474	1257
900.594	1226
900.715	1246
900.836	1260
900.957	1243
901.077	1258
901.198	1241
901.319	1243
901.439	1254
901.56	1260
901.681	1267
901.802	1242
901.922	1237
902.043	1244
902.164	1253
902.284	1234
902.405	1245
902.525	1232
902.646	1255
902.767	1258
902.887	1237
903.008	1261
903.129	1236
903.249	1259
903.37	1226
903.49	1252
903.611	1235
903.731	1255
903.852	1245
903.973	1237
904.093	1239
904.214	1241
904.334	1232
904.455	1242
904.575	1222
904.696	1241
904.816	1241
904.937	1232
905.057	1236
905.178	1227
905.298	1236
905.419	1227
905.539	1232
905.66	1237
905.78	1239
905.9	1232
906.021	1225
906.141	1240
906.262	1238
906.382	1232
906.503	1226
906.623	1235
906.743	1230
906.864	1237
906.984	1232
907.104	1256
907.225	1232
907.345	1224
907.466	1234
907.586	1215
907.706	1211
907.827	1208
907.947	1241
908.067	1201
908.188	1233
908.308	1226
908.428	1244
908.548	1221
908.669	1217
908.789	1214
908.909	1226
909.029	1217
909.15	1213
909.27	1207
909.39	1225
909.51	1212
909.631	1227
909.751	1220
909.871	1213
909.991	1220
910.111	1222
910.232	1211
910.352	1245
910.472	1236
910.592	1217
910.712	1220
910.832	1214
910.953	1202
911.073	1215
911.193	1209
911.313	1216
911.433	1219
911.553	1213
911.673	1230
911.793	1222
911.914	1213
912.034	1213
912.154	1212
912.274	1207
912.394	1210
912.514	1203
912.634	1206
912.754	1210
912.874	1204
912.994	1196
913.114	1198
913.234	1197
913.354	1215
913.474	1201
913.594	1210
913.714	1198
913.834	1202
913.954	1192
914.074	1215
914.194	1202
914.314	1209
914.434	1190
914.554	1201
914.674	1203
914.794	1215
914.913	1203
915.033	1198
915.153	1195
915.273	1208
915.393	1202
915.513	1193
915.633	1193
915.753	1206
915.872	1203
915.992	1191
916.112	1189
916.232	1199
916.352	1191
916.472	1202
916.591	1201
916.711	1205
916.831	1208
916.951	1197
917.071	1194
917.19	1210
917.31	1183
917.43	1189
917.55	1195
917.669	1197
917.789	1199
917.909	1194
918.029	1191
918.148	1205
918.268	1196
918.388	1183
918.507	1203
918.627	1200
918.747	1200
918.866	1201
918.986	1183
919.106	1200
919.225	1188
919.345	1195
919.465	1195
919.584	1194
919.704	1197
919.824	1202
919.943	1199
920.063	1176
920.182	1179
920.302	1193
920.421	1185
920.541	1184
920.661	1179
920.78	1191
920.9	1182
921.019	1193
921.139	1199
921.258	1188
921.378	1172
921.497	1198
921.617	1190
921.736	1190
921.856	1188
921.975	1174
922.095	1182
922.214	1180
922.334	1192
922.453	1182
922.573	1210
922.692	1190
922.812	1180
922.931	1184
923.05	1173
923.17	1205
923.289	1177
923.409	1186
923.528	1190
923.647	1193
923.767	1187
923.886	1174
924.005	1193
924.125	1180
924.244	1191
924.363	1200
924.483	1201
924.602	1198
924.721	1183
924.841	1191
924.96	1193
925.079	1181
925.199	1182
925.318	1191
925.437	1184
925.556	1176
925.676	1175
925.795	1190
925.914	1182
926.033	1194
926.153	1199
926.272	1172
926.391	1199
926.51	1170
926.629	1185
926.749	1188
926.868	1195
926.987	1183
927.106	1177
927.225	1194
927.345	1186
927.464	1179
927.583	1188
927.702	1179
927.821	1191
927.94	1206
928.059	1176
928.178	1181
928.297	1183
928.417	1182
928.536	1182
928.655	1169
928.774	1166
928.893	1182
929.012	1184
929.131	1187
929.25	1176
929.369	1174
929.488	1179
929.607	1170
929.726	1188
929.845	1183
929.964	1163
930.083	1177
930.202	1176
930.321	1173
930.44	1184
930.559	1168
930.678	1172
930.797	1197
930.916	1181
931.035	1170
931.154	1177
931.272	1172
931.391	1174
931.51	1178
931.629	1180
931.748	1165
931.867	1173
931.986	1163
932.105	1157
932.223	1184
932.342	1171
932.461	1161
932.58	1168
932.699	1185
932.818	1178
932.936	1173
933.055	1167
933.174	1161
933.293	1171
933.412	1171
933.53	1171
933.649	1179
933.768	1175
933.887	1169
934.005	1185
934.124	1174
934.243	1164
934.361	1169
934.48	1152
934.599	1169
934.718	1171
934.836	1168
934.955	1178
935.074	1173
935.192	1167
935.311	1168
935.43	1173
935.548	1168
935.667	1157
935.785	1168
935.904	1163
936.023	1157
936.141	1162
936.26	1169
936.378	1151
936.497	1174
936.616	1156
936.734	1159
936.853	1168
936.971	1166
937.09	1173
937.208	1173
937.327	1159
937.445	1150
937.564	1164
937.682	1165
937.801	1160
937.919	1161
938.038	1178
938.156	1173
938.275	1163
938.393	1168
938.512	1138
938.63	1174
938.749	1148
938.867	1154
938.986	1174
939.104	1141
939.222	1149
939.341	1159
939.459	1177
939.577	1157
939.696	1149
939.814	1143
939.933	1150
940.051	1147
940.169	1159
940.288	1157
940.406	1150
940.524	1167
940.643	1155
940.761	1169
940.879	1155
940.998	1148
941.116	1163
941.234	1141
941.352	1160
941.471	1155
941.589	1146
941.707	1149
941.825	1146
941.944	1174
942.062	1153
942.18	1145
942.298	1161
942.416	1130
942.535	1154
942.653	1162
942.771	1162
942.889	1163
943.007	1154
943.125	1151
943.244	1158
943.362	1145
943.48	1148
943.598	1145
943.716	1145
943.834	1138
943.952	1151
944.07	1139
944.189	1163
944.307	1139
944.425	1144
944.543	1150
944.661	1144
944.779	1156
944.897	1139
945.015	1137
945.133	1144
945.251	1146
945.369	1143
945.487	1150
945.605	1139
945.723	1132
945.841	1149
945.959	1141
946.077	1144
946.195	1145
946.313	1126
946.431	1158
946.549	1147
946.667	1138
946.785	1129
946.902	1132
947.02	1133
947.138	1126
947.256	1137
947.374	1144
947.492	1142
947.61	1128
947.728	1126
947.845	1125
947.963	1134
948.081	1128
948.199	1139
948.317	1132
948.435	1122
948.552	1129
948.67	1133
948.788	1129
948.906	1136
949.024	1140
949.141	1140
949.259	1134
949.377	1143
949.495	1132
949.612	1127
949.73	1142
949.848	1133
949.965	1131
950.083	1134
950.201	1141
950.318	1134
950.436	1137
950.554	1131
950.672	1141
950.789	1141
950.907	1116
951.024	1136
951.142	1132
951.26	1133
951.377	1131
951.495	1134
951.613	1124
951.73	1140
951.848	1127
951.965	1136
952.083	1130
952.2	1112
952.318	1127
952.436	1134
952.553	1120
952.671	1126
952.788	1137
952.906	1134
953.023	1129
953.141	1129
953.258	1128
953.376	1128
953.493	1132
953.611	1115
953.728	1117
953.845	1140
953.963	1123
954.08	1134
954.198	1140
