Wavelength	PL390-MAO-Cr-Mau11
nm	Counts
449.342	1019
449.472	1021
449.602	1018
449.732	1023
449.862	1028
449.992	1029
450.122	1028
450.252	1022
450.382	1025
450.512	1021
450.642	1022
450.772	1025
450.902	1028
451.032	1036
451.162	1023
451.292	1025
451.422	1026
451.552	1027
451.682	1021
451.812	1030
451.942	1027
452.071	1023
452.201	1027
452.331	1022
452.461	1029
452.591	1032
452.721	1017
452.851	1030
452.981	1024
453.111	1022
453.241	1022
453.371	1019
453.501	1022
453.63	1023
453.76	1025
453.89	1032
454.02	1023
454.15	1024
454.28	1019
454.41	1028
454.539	1022
454.669	1024
454.799	1020
454.929	1023
455.059	1020
455.189	1028
455.318	1027
455.448	1020
455.578	1023
455.708	1022
455.838	1022
455.968	1017
456.097	1022
456.227	1026
456.357	1025
456.487	1023
456.617	1019
456.746	1028
456.876	1025
457.006	1023
457.136	1029
457.265	1022
457.395	1018
457.525	1026
457.655	1024
457.784	1024
457.914	1029
458.044	1024
458.174	1024
458.303	1028
458.433	1027
458.563	1026
458.692	1025
458.822	1026
458.952	1022
459.081	1031
459.211	1028
459.341	1024
459.47	1028
459.6	1026
459.73	1027
459.86	1024
459.989	1028
460.119	1024
460.248	1024
460.378	1022
460.508	1016
460.637	1023
460.767	1023
460.897	1022
461.026	1026
461.156	1028
461.286	1024
461.415	1023
461.545	1020
461.674	1019
461.804	1030
461.933	1025
462.063	1029
462.193	1028
462.322	1028
462.452	1021
462.581	1028
462.711	1024
462.84	1026
462.97	1022
463.1	1028
463.229	1028
463.359	1028
463.488	1027
463.618	1033
463.747	1021
463.877	1029
464.006	1027
464.136	1021
464.265	1013
464.395	1026
464.524	1026
464.654	1030
464.783	1020
464.913	1027
465.042	1025
465.172	1021
465.301	1034
465.431	1030
465.56	1026
465.69	1022
465.819	1026
465.948	1026
466.078	1025
466.207	1028
466.337	1020
466.466	1021
466.596	1024
466.725	1021
466.854	1028
466.984	1024
467.113	1029
467.243	1023
467.372	1020
467.501	1029
467.631	1030
467.76	1027
467.889	1022
468.019	1026
468.148	1028
468.278	1021
468.407	1023
468.536	1026
468.666	1025
468.795	1024
468.924	1020
469.054	1031
469.183	1024
469.312	1028
469.442	1033
469.571	1030
469.7	1027
469.829	1031
469.959	1028
470.088	1035
470.217	1035
470.347	1031
470.476	1027
470.605	1027
470.734	1029
470.864	1024
470.993	1032
471.122	1028
471.251	1036
471.381	1021
471.51	1028
471.639	1032
471.768	1030
471.898	1031
472.027	1036
472.156	1038
472.285	1033
472.414	1024
472.544	1034
472.673	1029
472.802	1030
472.931	1028
473.06	1028
473.189	1024
473.319	1031
473.448	1024
473.577	1029
473.706	1026
473.835	1026
473.964	1031
474.094	1028
474.223	1033
474.352	1022
474.481	1029
474.61	1032
474.739	1019
474.868	1023
474.997	1037
475.126	1029
475.256	1027
475.385	1024
475.514	1027
475.643	1030
475.772	1020
475.901	1024
476.03	1037
476.159	1024
476.288	1030
476.417	1027
476.546	1027
476.675	1025
476.804	1023
476.933	1036
477.062	1024
477.191	1033
477.32	1030
477.449	1032
477.578	1027
477.707	1032
477.836	1028
477.965	1026
478.094	1029
478.223	1032
478.352	1036
478.481	1030
478.61	1029
478.739	1020
478.868	1031
478.997	1032
479.126	1034
479.255	1028
479.384	1033
479.513	1032
479.642	1027
479.771	1023
479.9	1033
480.028	1026
480.157	1023
480.286	1029
480.415	1027
480.544	1027
480.673	1024
480.802	1036
480.931	1038
481.06	1028
481.188	1029
481.317	1033
481.446	1034
481.575	1015
481.704	1035
481.833	1023
481.961	1024
482.09	1028
482.219	1036
482.348	1032
482.477	1028
482.606	1028
482.734	1035
482.863	1028
482.992	1026
483.121	1036
483.249	1040
483.378	1039
483.507	1027
483.636	1030
483.765	1040
483.893	1018
484.022	1038
484.151	1030
484.28	1027
484.408	1028
484.537	1031
484.666	1032
484.794	1029
484.923	1024
485.052	1031
485.181	1030
485.309	1031
485.438	1031
485.567	1035
485.695	1035
485.824	1036
485.953	1032
486.081	1031
486.21	1040
486.339	1028
486.467	1034
486.596	1029
486.725	1030
486.853	1042
486.982	1036
487.11	1028
487.239	1031
487.368	1036
487.496	1031
487.625	1041
487.754	1037
487.882	1032
488.011	1036
488.139	1023
488.268	1033
488.396	1041
488.525	1035
488.654	1024
488.782	1032
488.911	1031
489.039	1036
489.168	1028
489.296	1027
489.425	1032
489.553	1035
489.682	1042
489.81	1035
489.939	1035
490.067	1036
490.196	1037
490.324	1034
490.453	1034
490.581	1037
490.71	1037
490.838	1028
490.967	1038
491.095	1033
491.224	1038
491.352	1024
491.481	1039
491.609	1044
491.738	1031
491.866	1034
491.994	1028
492.123	1032
492.251	1031
492.38	1024
492.508	1037
492.636	1041
492.765	1034
492.893	1033
493.022	1031
493.15	1037
493.278	1038
493.407	1039
493.535	1041
493.663	1043
493.792	1043
493.92	1035
494.049	1037
494.177	1030
494.305	1039
494.434	1027
494.562	1033
494.69	1037
494.818	1032
494.947	1030
495.075	1033
495.203	1034
495.332	1025
495.46	1035
495.588	1039
495.716	1032
495.845	1040
495.973	1036
496.101	1035
496.23	1037
496.358	1038
496.486	1037
496.614	1037
496.742	1045
496.871	1039
496.999	1035
497.127	1039
497.255	1028
497.384	1035
497.512	1032
497.64	1045
497.768	1035
497.896	1032
498.024	1034
498.153	1037
498.281	1036
498.409	1036
498.537	1029
498.665	1035
498.793	1035
498.922	1028
499.05	1036
499.178	1031
499.306	1043
499.434	1032
499.562	1044
499.69	1034
499.818	1034
499.947	1037
500.075	1037
500.203	1034
500.331	1037
500.459	1050
500.587	1041
500.715	1037
500.843	1036
500.971	1031
501.099	1040
501.227	1030
501.355	1033
501.483	1027
501.611	1045
501.739	1033
501.867	1036
501.995	1043
502.123	1030
502.251	1033
502.379	1038
502.507	1043
502.635	1036
502.763	1051
502.891	1040
503.019	1039
503.147	1033
503.275	1042
503.403	1028
503.531	1043
503.659	1038
503.787	1042
503.915	1030
504.043	1046
504.171	1031
504.299	1039
504.426	1035
504.554	1033
504.682	1034
504.81	1032
504.938	1034
505.066	1037
505.194	1040
505.322	1034
505.449	1042
505.577	1040
505.705	1040
505.833	1044
505.961	1030
506.089	1038
506.217	1041
506.344	1033
506.472	1036
506.6	1035
506.728	1036
506.856	1035
506.983	1042
507.111	1043
507.239	1046
507.367	1032
507.495	1041
507.622	1039
507.75	1034
507.878	1038
508.006	1043
508.133	1031
508.261	1040
508.389	1037
508.516	1046
508.644	1028
508.772	1042
508.9	1037
509.027	1036
509.155	1041
509.283	1038
509.41	1033
509.538	1038
509.666	1031
509.793	1037
509.921	1038
510.049	1033
510.176	1039
510.304	1038
510.432	1039
510.559	1036
510.687	1035
510.815	1036
510.942	1040
511.07	1041
511.197	1041
511.325	1040
511.453	1033
511.58	1037
511.708	1046
511.835	1034
511.963	1039
512.091	1038
512.218	1039
512.346	1038
512.473	1036
512.601	1038
512.728	1041
512.856	1042
512.983	1040
513.111	1036
513.238	1036
513.366	1040
513.494	1044
513.621	1043
513.749	1045
513.876	1039
514.003	1036
514.131	1032
514.258	1048
514.386	1035
514.513	1034
514.641	1040
514.768	1042
514.896	1048
515.023	1040
515.151	1034
515.278	1046
515.405	1038
515.533	1044
515.66	1050
515.788	1040
515.915	1037
516.042	1047
516.17	1039
516.297	1043
516.425	1044
516.552	1038
516.679	1046
516.807	1034
516.934	1045
517.061	1045
517.189	1041
517.316	1044
517.443	1047
517.571	1038
517.698	1041
517.825	1043
517.953	1041
518.08	1048
518.207	1051
518.335	1037
518.462	1049
518.589	1052
518.716	1053
518.844	1044
518.971	1041
519.098	1042
519.226	1041
519.353	1042
519.48	1036
519.607	1046
519.734	1052
519.862	1038
519.989	1036
520.116	1038
520.243	1046
520.371	1041
520.498	1037
520.625	1041
520.752	1030
520.879	1043
521.006	1038
521.134	1038
521.261	1040
521.388	1046
521.515	1042
521.642	1036
521.769	1037
521.896	1041
522.024	1046
522.151	1042
522.278	1041
522.405	1042
522.532	1038
522.659	1035
522.786	1037
522.913	1038
523.04	1035
523.167	1051
523.295	1037
523.422	1040
523.549	1033
523.676	1042
523.803	1034
523.93	1043
524.057	1040
524.184	1053
524.311	1040
524.438	1043
524.565	1046
524.692	1045
524.819	1049
524.946	1044
525.073	1038
525.2	1036
525.327	1044
525.454	1042
525.581	1039
525.708	1038
525.835	1040
525.962	1045
526.088	1042
526.215	1039
526.342	1045
526.469	1042
526.596	1044
526.723	1039
526.85	1048
526.977	1037
527.104	1047
527.231	1045
527.358	1044
527.484	1041
527.611	1039
527.738	1045
527.865	1042
527.992	1041
528.119	1042
528.246	1042
528.372	1048
528.499	1041
528.626	1037
528.753	1042
528.88	1047
529.006	1045
529.133	1042
529.26	1038
529.387	1050
529.514	1048
529.64	1048
529.767	1039
529.894	1040
530.021	1044
530.147	1041
530.274	1041
530.401	1040
530.528	1039
530.654	1050
530.781	1042
530.908	1041
531.034	1048
531.161	1054
531.288	1037
531.414	1039
531.541	1036
531.668	1036
531.795	1045
531.921	1046
532.048	1037
532.174	1051
532.301	1050
532.428	1042
532.554	1052
532.681	1042
532.808	1040
532.934	1044
533.061	1041
533.187	1037
533.314	1042
533.441	1038
533.567	1037
533.694	1040
533.82	1050
533.947	1050
534.074	1040
534.2	1050
534.327	1039
534.453	1040
534.58	1039
534.706	1054
534.833	1050
534.959	1041
535.086	1044
535.212	1032
535.339	1047
535.465	1038
535.592	1050
535.718	1049
535.845	1048
535.971	1039
536.098	1044
536.224	1044
536.351	1043
536.477	1048
536.604	1042
536.73	1044
536.856	1048
536.983	1035
537.109	1049
537.236	1032
537.362	1044
537.488	1046
537.615	1047
537.741	1048
537.868	1050
537.994	1040
538.12	1046
538.247	1042
538.373	1050
538.499	1046
538.626	1038
538.752	1043
538.878	1045
539.005	1037
539.131	1038
539.257	1044
539.384	1049
539.51	1032
539.636	1050
539.763	1039
539.889	1050
540.015	1041
540.141	1045
540.268	1043
540.394	1038
540.52	1044
540.646	1041
540.773	1049
540.899	1041
541.025	1049
541.151	1036
541.278	1035
541.404	1044
541.53	1046
541.656	1047
541.782	1061
541.909	1044
542.035	1055
542.161	1043
542.287	1044
542.413	1053
542.539	1044
542.665	1041
542.792	1041
542.918	1038
543.044	1048
543.17	1041
543.296	1042
543.422	1044
543.548	1041
543.674	1042
543.801	1044
543.927	1041
544.053	1040
544.179	1045
544.305	1045
544.431	1042
544.557	1035
544.683	1048
544.809	1037
544.935	1044
545.061	1046
545.187	1044
545.313	1041
545.439	1046
545.565	1050
545.691	1049
545.817	1036
545.943	1050
546.069	1045
546.195	1044
546.321	1047
546.447	1042
546.573	1052
546.699	1040
546.825	1043
546.951	1048
547.077	1040
547.203	1046
547.329	1049
547.454	1039
547.58	1032
547.706	1037
547.832	1047
547.958	1045
548.084	1040
548.21	1045
548.336	1048
548.462	1042
548.587	1051
548.713	1045
548.839	1046
548.965	1048
549.091	1041
549.217	1048
549.342	1045
549.468	1049
549.594	1047
549.72	1043
549.846	1051
549.971	1041
550.097	1046
550.223	1050
550.349	1049
550.474	1045
550.6	1039
550.726	1044
550.852	1038
550.977	1045
551.103	1050
551.229	1047
551.355	1053
551.48	1043
551.606	1041
551.732	1046
551.857	1037
551.983	1031
552.109	1038
552.234	1040
552.36	1050
552.486	1047
552.611	1046
552.737	1042
552.863	1045
552.988	1049
553.114	1038
553.24	1047
553.365	1046
553.491	1036
553.616	1043
553.742	1043
553.868	1051
553.993	1052
554.119	1047
554.244	1046
554.37	1054
554.495	1043
554.621	1041
554.746	1035
554.872	1049
554.998	1046
555.123	1052
555.249	1042
555.374	1050
555.5	1042
555.625	1041
555.751	1049
555.876	1050
556.002	1051
556.127	1042
556.252	1052
556.378	1045
556.503	1039
556.629	1044
556.754	1041
556.88	1042
557.005	1051
557.131	1048
557.256	1042
557.381	1046
557.507	1042
557.632	1049
557.758	1041
557.883	1039
558.008	1033
558.134	1037
558.259	1052
558.384	1041
558.51	1051
558.635	1043
558.76	1049
558.886	1049
559.011	1053
559.136	1051
559.262	1051
559.387	1053
559.512	1052
559.638	1051
559.763	1048
559.888	1055
560.013	1046
560.139	1042
560.264	1052
560.389	1046
560.514	1044
560.64	1044
560.765	1043
560.89	1058
561.015	1043
561.141	1048
561.266	1052
561.391	1053
561.516	1049
561.641	1055
561.767	1046
561.892	1064
562.017	1045
562.142	1046
562.267	1044
562.392	1050
562.518	1047
562.643	1049
562.768	1050
562.893	1049
563.018	1051
563.143	1049
563.268	1049
563.393	1039
563.518	1046
563.644	1052
563.769	1045
563.894	1052
564.019	1045
564.144	1047
564.269	1046
564.394	1041
564.519	1040
564.644	1033
564.769	1058
564.894	1044
565.019	1038
565.144	1050
565.269	1048
565.394	1049
565.519	1037
565.644	1045
565.769	1046
565.894	1047
566.019	1041
566.144	1053
566.269	1055
566.394	1037
566.519	1048
566.644	1057
566.769	1058
566.893	1060
567.018	1051
567.143	1045
567.268	1041
567.393	1045
567.518	1048
567.643	1045
567.768	1044
567.893	1055
568.017	1053
568.142	1057
568.267	1047
568.392	1051
568.517	1051
568.642	1051
568.766	1044
568.891	1046
569.016	1054
569.141	1047
569.266	1044
569.39	1043
569.515	1053
569.64	1053
569.765	1040
569.889	1044
570.014	1037
570.139	1044
570.264	1050
570.388	1046
570.513	1043
570.638	1049
570.762	1047
570.887	1046
571.012	1044
571.137	1047
571.261	1038
571.386	1046
571.511	1049
571.635	1049
571.76	1039
571.885	1051
572.009	1054
572.134	1049
572.258	1057
572.383	1050
572.508	1045
572.632	1049
572.757	1048
572.881	1046
573.006	1054
573.131	1056
573.255	1038
573.38	1057
573.504	1049
573.629	1052
573.753	1049
573.878	1054
574.003	1052
574.127	1049
574.252	1043
574.376	1049
574.501	1053
574.625	1064
574.75	1051
574.874	1047
574.999	1045
575.123	1045
575.248	1047
575.372	1056
575.496	1047
575.621	1054
575.745	1044
575.87	1052
575.994	1052
576.119	1050
576.243	1048
576.367	1049
576.492	1060
576.616	1057
576.741	1043
576.865	1053
576.989	1054
577.114	1049
577.238	1060
577.362	1054
577.487	1047
577.611	1046
577.735	1057
577.86	1048
577.984	1047
578.108	1054
578.233	1057
578.357	1063
578.481	1057
578.606	1055
578.73	1058
578.854	1055
578.978	1048
578.977	1053
579.106	1036
579.234	1040
579.362	1039
579.491	1040
579.619	1035
579.747	1038
579.875	1043
580.004	1040
580.132	1037
580.26	1035
580.388	1041
580.517	1039
580.645	1044
580.773	1043
580.901	1045
581.03	1040
581.158	1039
581.286	1042
581.414	1039
581.542	1045
581.671	1046
581.799	1038
581.927	1042
582.055	1048
582.183	1045
582.312	1036
582.44	1039
582.568	1043
582.696	1044
582.824	1048
582.952	1045
583.08	1045
583.209	1053
583.337	1044
583.465	1050
583.593	1039
583.721	1048
583.849	1045
583.977	1056
584.105	1056
584.233	1042
584.362	1049
584.49	1053
584.618	1050
584.746	1053
584.874	1050
585.002	1047
585.13	1053
585.258	1044
585.386	1043
585.514	1053
585.642	1049
585.77	1057
585.898	1060
586.026	1057
586.154	1056
586.282	1042
586.41	1056
586.538	1058
586.666	1058
586.794	1058
586.922	1059
587.05	1058
587.178	1050
587.306	1058
587.434	1048
587.562	1052
587.69	1053
587.818	1057
587.946	1056
588.074	1047
588.202	1055
588.33	1057
588.458	1060
588.586	1058
588.714	1075
588.842	1071
588.97	1066
589.097	1062
589.225	1061
589.353	1057
589.481	1062
589.609	1055
589.737	1070
589.865	1064
589.993	1065
590.121	1060
590.248	1066
590.376	1063
590.504	1068
590.632	1063
590.76	1076
590.888	1063
591.015	1072
591.143	1079
591.271	1069
591.399	1065
591.527	1057
591.655	1077
591.782	1066
591.91	1060
592.038	1066
592.166	1079
592.294	1067
592.421	1063
592.549	1069
592.677	1069
592.805	1080
592.932	1063
593.06	1074
593.188	1079
593.316	1078
593.443	1074
593.571	1087
593.699	1071
593.826	1079
593.954	1080
594.082	1073
594.21	1082
594.337	1079
594.465	1088
594.593	1073
594.72	1074
594.848	1076
594.976	1084
595.103	1083
595.231	1081
595.359	1082
595.486	1090
595.614	1089
595.742	1094
595.869	1081
595.997	1098
596.124	1082
596.252	1092
596.38	1083
596.507	1090
596.635	1087
596.763	1098
596.89	1100
597.018	1102
597.145	1095
597.273	1093
597.4	1104
597.528	1091
597.656	1091
597.783	1098
597.911	1088
598.038	1103
598.166	1095
598.293	1092
598.421	1090
598.548	1106
598.676	1111
598.803	1108
598.931	1091
599.058	1095
599.186	1086
599.313	1097
599.441	1115
599.568	1110
599.696	1110
599.823	1105
599.951	1106
600.078	1118
600.206	1116
600.333	1114
600.461	1099
600.588	1111
600.715	1113
600.843	1114
600.97	1119
601.098	1112
601.225	1120
601.353	1129
601.48	1129
601.607	1112
601.735	1121
601.862	1116
601.99	1123
602.117	1115
602.244	1127
602.372	1117
602.499	1107
602.626	1122
602.754	1131
602.881	1126
603.008	1127
603.136	1122
603.263	1117
603.39	1116
603.518	1129
603.645	1135
603.772	1135
603.9	1135
604.027	1121
604.154	1141
604.281	1142
604.409	1139
604.536	1140
604.663	1153
604.791	1145
604.918	1142
605.045	1141
605.172	1152
605.3	1155
605.427	1155
605.554	1145
605.681	1152
605.809	1148
605.936	1153
606.063	1154
606.19	1158
606.317	1139
606.445	1167
606.572	1154
606.699	1149
606.826	1155
606.953	1160
607.08	1155
607.208	1175
607.335	1161
607.462	1163
607.589	1158
607.716	1180
607.843	1158
607.97	1160
608.098	1176
608.225	1164
608.352	1177
608.479	1171
608.606	1151
608.733	1162
608.86	1154
608.987	1182
609.114	1186
609.241	1172
609.369	1182
609.496	1191
609.623	1209
609.75	1173
609.877	1187
610.004	1198
610.131	1171
610.258	1186
610.385	1190
610.512	1169
610.639	1203
610.766	1183
610.893	1187
611.02	1191
611.147	1207
611.274	1192
611.401	1210
611.528	1193
611.655	1210
611.782	1225
611.909	1192
612.036	1217
612.163	1204
612.29	1192
612.417	1221
612.543	1203
612.67	1218
612.797	1220
612.924	1214
613.051	1212
613.178	1216
613.305	1218
613.432	1220
613.559	1239
613.686	1213
613.813	1214
613.939	1230
614.066	1237
614.193	1220
614.32	1236
614.447	1238
614.574	1223
614.701	1227
614.827	1241
614.954	1252
615.081	1244
615.208	1233
615.335	1229
615.461	1240
615.588	1246
615.715	1257
615.842	1254
615.969	1262
616.095	1262
616.222	1261
616.349	1257
616.476	1255
616.602	1264
616.729	1276
616.856	1252
616.983	1258
617.109	1280
617.236	1287
617.363	1258
617.49	1295
617.616	1267
617.743	1294
617.87	1285
617.996	1301
618.123	1278
618.25	1273
618.376	1285
618.503	1274
618.63	1278
618.756	1295
618.883	1306
619.01	1292
619.136	1284
619.263	1289
619.39	1298
619.516	1305
619.643	1313
619.769	1329
619.896	1306
620.023	1316
620.149	1325
620.276	1312
620.402	1338
620.529	1303
620.656	1310
620.782	1325
620.909	1329
621.035	1327
621.162	1348
621.288	1323
621.415	1339
621.541	1332
621.668	1327
621.795	1346
621.921	1342
622.048	1326
622.174	1361
622.301	1349
622.427	1342
622.554	1363
622.68	1363
622.807	1359
622.933	1356
623.059	1372
623.186	1356
623.312	1373
623.439	1374
623.565	1371
623.692	1388
623.818	1371
623.945	1386
624.071	1370
624.197	1376
624.324	1406
624.45	1390
624.577	1390
624.703	1384
624.829	1392
624.956	1412
625.082	1415
625.209	1388
625.335	1393
625.461	1390
625.588	1404
625.714	1409
625.84	1422
625.967	1416
626.093	1430
626.219	1424
626.346	1410
626.472	1441
626.598	1431
626.725	1434
626.851	1430
626.977	1457
627.103	1434
627.23	1456
627.356	1441
627.482	1444
627.608	1454
627.735	1444
627.861	1477
627.987	1460
628.113	1461
628.24	1461
628.366	1460
628.492	1480
628.618	1472
628.745	1465
628.871	1491
628.997	1510
629.123	1494
629.249	1490
629.376	1484
629.502	1494
629.628	1502
629.754	1530
629.88	1515
630.006	1535
630.132	1538
630.259	1527
630.385	1543
630.511	1543
630.637	1547
630.763	1544
630.889	1546
631.015	1542
631.141	1557
631.268	1561
631.394	1566
631.52	1574
631.646	1568
631.772	1574
631.898	1565
632.024	1608
632.15	1581
632.276	1555
632.402	1566
632.528	1580
632.654	1602
632.78	1605
632.906	1598
633.032	1634
633.158	1596
633.284	1616
633.41	1640
633.536	1659
633.662	1635
633.788	1646
633.914	1651
634.04	1668
634.166	1661
634.292	1656
634.418	1652
634.544	1682
634.67	1694
634.796	1659
634.922	1725
635.048	1731
635.173	1684
635.299	1737
635.425	1702
635.551	1741
635.677	1692
635.803	1716
635.929	1717
636.055	1752
636.181	1696
636.306	1724
636.432	1745
636.558	1782
636.684	1765
636.81	1764
636.936	1795
637.061	1764
637.187	1764
637.313	1779
637.439	1794
637.565	1805
637.69	1801
637.816	1827
637.942	1810
638.068	1806
638.193	1811
638.319	1816
638.445	1821
638.571	1845
638.696	1810
638.822	1831
638.948	1907
639.074	1859
639.199	1864
639.325	1891
639.451	1849
639.577	1916
639.702	1870
639.828	1886
639.954	1916
640.079	1882
640.205	1918
640.331	1890
640.456	1899
640.582	1926
640.708	1959
640.833	1948
640.959	1944
641.084	1954
641.21	2025
641.336	1976
641.461	1935
641.587	1972
641.712	2006
641.838	1979
641.964	2020
642.089	2030
642.215	2097
642.34	2029
642.466	2017
642.592	2054
642.717	2079
642.843	2133
642.968	2121
643.094	2109
643.219	2115
643.345	2147
643.47	2151
643.596	2182
643.721	2136
643.847	2163
643.972	2209
644.098	2208
644.223	2143
644.349	2223
644.474	2202
644.6	2234
644.725	2286
644.85	2265
644.976	2231
645.101	2220
645.227	2319
645.352	2289
645.478	2343
645.603	2313
645.728	2326
645.854	2327
645.979	2354
646.105	2364
646.23	2375
646.355	2423
646.481	2380
646.606	2393
646.731	2403
646.857	2474
646.982	2458
647.107	2424
647.233	2453
647.358	2504
647.483	2522
647.609	2487
647.734	2551
647.859	2570
647.985	2564
648.11	2562
648.235	2607
648.36	2598
648.486	2587
648.611	2625
648.736	2673
648.862	2646
648.987	2737
649.112	2729
649.237	2748
649.362	2725
649.488	2787
649.613	2764
649.738	2827
649.863	2827
649.988	2930
650.114	2922
650.239	2941
650.364	2940
650.489	2915
650.614	2995
650.74	2970
650.865	2980
650.99	3077
651.115	3052
651.24	3119
651.365	3114
651.49	3100
651.615	3169
651.741	3187
651.866	3224
651.991	3223
652.116	3211
652.241	3251
652.366	3276
652.491	3258
652.616	3290
652.741	3296
652.866	3332
652.991	3331
653.116	3398
653.241	3376
653.366	3343
653.491	3388
653.616	3396
653.741	3390
653.866	3355
653.991	3438
654.116	3419
654.241	3480
654.366	3473
654.491	3491
654.616	3534
654.741	3546
654.866	3538
654.991	3553
655.116	3622
655.241	3619
655.366	3681
655.491	3737
655.616	3729
655.741	3821
655.866	3908
655.99	3905
656.115	3956
656.24	4024
656.365	4021
656.49	4082
656.615	4122
656.74	4168
656.865	4154
656.989	4275
657.114	4321
657.239	4408
657.364	4383
657.489	4451
657.614	4468
657.738	4474
657.863	4479
657.988	4523
658.113	4569
658.238	4668
658.362	4640
658.487	4574
658.612	4732
658.737	4751
658.861	4806
658.986	4880
659.111	4838
659.236	4847
659.36	4968
659.485	4964
659.61	4975
659.734	5077
659.859	5172
659.984	5264
660.108	5307
660.233	5339
660.358	5495
660.482	5496
660.607	5690
660.732	5672
660.856	5739
660.981	5905
661.106	5915
661.23	5979
661.355	6020
661.48	6127
661.604	6190
661.729	6305
661.853	6368
661.978	6458
662.103	6398
662.227	6508
662.352	6618
662.476	6595
662.601	6610
662.725	6704
662.85	6671
662.974	6862
663.099	6818
663.224	6841
663.348	6930
663.473	6987
663.597	6972
663.722	7053
663.846	7094
663.971	7065
664.095	7202
664.219	7197
664.344	7381
664.468	7310
664.593	7353
664.717	7504
664.842	7556
664.966	7546
665.091	7634
665.215	7735
665.339	7804
665.464	7831
665.588	7867
665.713	7940
665.837	7922
665.961	8080
666.086	7987
666.21	8012
666.335	8005
666.459	8168
666.583	8236
666.708	8257
666.832	8189
666.956	8400
667.081	8366
667.205	8305
667.329	8341
667.454	8419
667.578	8468
667.702	8366
667.826	8480
667.951	8554
668.075	8515
668.199	8557
668.324	8411
668.448	8561
668.572	8494
668.696	8634
668.82	8605
668.945	8681
669.069	8586
669.193	8689
669.317	8722
669.442	8754
669.566	8786
669.69	8919
669.814	8919
669.938	8929
670.062	9058
670.187	9150
670.311	9302
670.435	9427
670.559	9588
670.683	9532
670.807	9740
670.931	9649
671.056	9925
671.18	10076
671.304	10130
671.428	10327
671.552	10410
671.676	10581
671.8	10746
671.924	10988
672.048	11076
672.172	11114
672.296	11224
672.42	11453
672.544	11507
672.669	11721
672.793	11822
672.917	11916
673.041	12148
673.165	12333
673.289	12326
673.413	12549
673.537	12774
673.661	12937
673.785	13070
673.908	13347
674.032	13517
674.156	13538
674.28	13823
674.404	13914
674.528	14088
674.652	14294
674.776	14478
674.9	14537
675.024	14708
675.148	14759
675.272	14900
675.396	14934
675.519	15126
675.643	15061
675.767	15242
675.891	15188
676.015	15167
676.139	15141
676.263	15092
676.386	14952
676.51	14916
676.634	14756
676.758	14731
676.882	14815
677.005	14604
677.129	14448
677.253	14398
677.377	14376
677.501	14262
677.624	14168
677.748	14042
677.872	13888
677.996	13777
678.119	13801
678.243	13566
678.367	13423
678.491	13451
678.614	13277
678.738	13368
678.862	13023
678.985	12946
679.109	12912
679.233	12755
679.356	12514
679.48	12398
679.604	12397
679.727	12367
679.851	12199
679.975	12096
680.098	11920
680.222	11940
680.346	11755
680.469	11777
680.593	11691
680.716	11549
680.84	11524
680.963	11447
681.087	11342
681.211	11271
681.334	11177
681.458	11235
681.581	11182
681.705	11217
681.828	11173
681.952	11163
682.075	11105
682.199	11207
682.322	11159
682.446	11190
682.569	11206
682.693	11408
682.816	11477
682.94	11672
683.063	11957
683.187	12294
683.31	12836
683.434	13234
683.557	13976
683.681	14832
683.804	15908
683.928	17108
684.051	18503
684.174	20148
684.298	22107
684.421	24136
684.545	26144
684.668	28490
684.791	30869
684.915	33053
685.038	35451
685.161	37226
685.285	39451
685.408	41387
685.531	43097
685.655	44893
685.778	46499
685.901	47986
686.025	49699
686.148	51347
686.271	52920
686.395	54636
686.518	56251
686.641	57700
686.764	58822
686.888	60547
687.011	61538
687.134	62830
687.257	63701
687.381	64290
687.504	65115
687.627	65447
687.75	65535
687.873	65535
687.997	65535
688.12	65535
688.243	65535
688.366	65535
688.489	65490
688.613	64658
688.736	63795
688.859	63322
688.982	62410
689.105	61550
689.228	60788
689.351	59366
689.475	58337
689.598	57539
689.721	56017
689.844	54793
689.967	53895
690.09	52604
690.213	51282
690.336	50065
690.459	48997
690.582	48108
690.705	47008
690.828	45825
690.951	44964
691.074	44305
691.197	43267
691.32	42725
691.443	41884
691.566	41453
691.689	41085
691.812	40593
691.935	40407
692.058	39793
692.181	39601
692.304	39043
692.427	39021
692.55	38670
692.673	38410
692.796	38137
692.919	37764
693.042	37519
693.165	37149
693.288	37203
693.411	36791
693.533	37052
693.656	36448
693.779	36353
693.902	36030
694.025	35710
694.148	35489
694.271	34727
694.393	34741
694.516	34367
694.639	34206
694.762	33760
694.885	33566
695.008	33493
695.13	33525
695.253	33300
695.376	33275
695.499	33029
695.622	32800
695.744	32727
695.867	32853
695.99	32478
696.113	32659
696.235	32532
696.358	32507
696.481	32542
696.603	32785
696.726	32635
696.849	32575
696.972	32721
697.094	32727
697.217	32841
697.34	32828
697.462	32820
697.585	32928
697.708	32583
697.83	32739
697.953	32646
698.075	32498
698.198	32161
698.321	32188
698.443	32013
698.566	32102
698.688	31668
698.811	31899
698.934	31459
699.056	31688
699.179	31437
699.301	31126
699.424	31189
699.546	30909
699.669	30697
699.792	30267
699.914	30335
700.037	30064
700.159	29623
700.282	29666
700.404	29209
700.527	28943
700.649	28837
700.772	28445
700.894	28275
701.016	28262
701.139	27692
701.261	27589
701.384	27292
701.506	27132
701.629	26762
701.751	26819
701.873	26506
701.996	26161
702.118	25970
702.241	26099
702.363	25698
702.485	25779
702.608	25734
702.73	25682
702.853	25564
702.975	25585
703.097	25460
703.22	25572
703.342	25762
703.464	25637
703.587	25732
703.709	25907
703.831	26017
703.953	26153
704.076	26309
704.198	26283
704.32	26349
704.442	26579
704.565	26845
704.687	27016
704.809	26984
704.931	27128
705.054	27351
705.176	27438
705.298	27469
705.42	27543
705.543	27815
705.665	28103
705.787	28305
705.909	28266
706.031	28504
706.025	31086
706.151	31432
706.278	31501
706.404	31713
706.531	31648
706.657	31435
706.783	31797
706.91	31599
707.036	31866
707.162	31800
707.289	31633
707.415	31512
707.541	31518
707.668	31406
707.794	31389
707.92	31081
708.047	31076
708.173	31089
708.299	30789
708.426	30757
708.552	30572
708.678	30627
708.805	30364
708.931	30058
709.057	29946
709.183	29585
709.31	29522
709.436	29132
709.562	28988
709.688	28721
709.815	28545
709.941	28335
710.067	28161
710.193	27828
710.32	27591
710.446	27323
710.572	27185
710.698	26911
710.824	26754
710.951	26581
711.077	26385
711.203	26110
711.329	25960
711.455	25735
711.581	25389
711.708	25405
711.834	25327
711.96	25207
712.086	25047
712.212	25040
712.338	24798
712.464	24762
712.591	24828
712.717	24500
712.843	24581
712.969	24440
713.095	24573
713.221	24284
713.347	24310
713.473	24129
713.599	24234
713.725	24162
713.852	24253
713.978	24292
714.104	24424
714.23	24332
714.356	24402
714.482	24618
714.608	24711
714.734	24620
714.86	25032
714.986	24779
715.112	24976
715.238	25194
715.364	25318
715.49	25594
715.616	25578
715.742	25770
715.868	25949
715.994	26054
716.12	26036
716.246	26595
716.372	26289
716.498	26169
716.624	26136
716.75	26169
716.876	26227
717.002	25922
717.127	25683
717.253	25537
717.379	25128
717.505	25021
717.631	24562
717.757	24526
717.883	24053
718.009	23730
718.135	23360
718.261	22980
718.386	22559
718.512	22218
718.638	21871
718.764	21496
718.89	21134
719.016	20895
719.142	20594
719.267	20238
719.393	20094
719.519	19705
719.645	19460
719.771	19420
719.896	18824
720.022	18846
720.148	18811
720.274	18458
720.4	18343
720.525	18322
720.651	18151
720.777	18027
720.903	17985
721.029	17787
721.154	17762
721.28	17765
721.406	17616
721.531	17404
721.657	17548
721.783	17187
721.909	17182
722.034	17120
722.16	16909
722.286	16776
722.411	16754
722.537	16630
722.663	16562
722.789	16203
722.914	16092
723.04	15780
723.166	15746
723.291	15752
723.417	15424
723.542	15442
723.668	15216
723.794	14945
723.919	14863
724.045	14670
724.171	14616
724.296	14387
724.422	14269
724.547	14327
724.673	14065
724.799	13842
724.924	13898
725.05	13589
725.175	13447
725.301	13366
725.426	13264
725.552	13147
725.678	13127
725.803	12952
725.929	12823
726.054	12738
726.18	12696
726.305	12626
726.431	12392
726.556	12343
726.682	12249
726.807	12294
726.933	12261
727.058	12028
727.184	12008
727.309	11974
727.435	11860
727.56	11709
727.686	11749
727.811	11526
727.937	11555
728.062	11377
728.187	11382
728.313	11350
728.438	11262
728.564	11153
728.689	11077
728.815	10972
728.94	11046
729.065	10861
729.191	10953
729.316	10752
729.441	10809
729.567	10748
729.692	10742
729.818	10690
729.943	10483
730.068	10597
730.194	10505
730.319	10388
730.444	10260
730.57	10324
730.695	10100
730.82	10285
730.946	10222
731.071	10076
731.196	10040
731.321	10004
731.447	9928
731.572	10054
731.697	9882
731.823	9865
731.948	9892
732.073	9784
732.198	9774
732.324	9648
732.449	9703
732.574	9671
732.699	9704
732.825	9614
732.95	9543
733.075	9524
733.2	9540
733.325	9412
733.451	9400
733.576	9313
733.701	9364
733.826	9364
733.951	9275
734.077	9258
734.202	9119
734.327	9052
734.452	9135
734.577	9053
734.702	8952
734.827	9018
734.953	9049
735.078	8985
735.203	8861
735.328	8877
735.453	8824
735.578	8856
735.703	8783
735.828	8779
735.953	8829
736.078	8846
736.203	8719
736.329	8594
736.454	8615
736.579	8721
736.704	8498
736.829	8642
736.954	8474
737.079	8508
737.204	8430
737.329	8567
737.454	8482
737.579	8381
737.704	8484
737.829	8418
737.954	8449
738.079	8345
738.204	8298
738.329	8354
738.454	8364
738.579	8290
738.704	8406
738.829	8257
738.953	8218
739.078	8175
739.203	8169
739.328	8127
739.453	8124
739.578	8105
739.703	8129
739.828	8098
739.953	7974
740.078	8016
740.203	7897
740.327	7987
740.452	7941
740.577	7970
740.702	7858
740.827	7825
740.952	7786
741.077	7802
741.201	7817
741.326	7747
741.451	7740
741.576	7714
741.701	7773
741.825	7709
741.95	7626
742.075	7619
742.2	7590
742.325	7480
742.449	7598
742.574	7540
742.699	7481
742.824	7417
742.948	7402
743.073	7295
743.198	7304
743.323	7526
743.447	7496
743.572	7250
743.697	7265
743.821	7247
743.946	7165
744.071	7230
744.196	7170
744.32	7112
744.445	7171
744.57	7051
744.694	7099
744.819	6981
744.944	7045
745.068	6973
745.193	6914
745.318	6912
745.442	6957
745.567	6891
745.691	6867
745.816	6724
745.941	6794
746.065	6728
746.19	6791
746.314	6786
746.439	6764
746.564	6741
746.688	6682
746.813	6630
746.937	6613
747.062	6556
747.186	6620
747.311	6564
747.435	6592
747.56	6561
747.684	6507
747.809	6466
747.933	6430
748.058	6462
748.182	6445
748.307	6386
748.431	6358
748.556	6313
748.68	6401
748.805	6321
748.929	6387
749.054	6210
749.178	6228
749.303	6208
749.427	6220
749.552	6167
749.676	6075
749.8	6138
749.925	6118
750.049	6066
750.174	6115
750.298	6117
750.422	5959
750.547	5941
750.671	5959
750.796	5982
750.92	5983
751.044	6003
751.169	5930
751.293	5939
751.417	5925
751.542	5953
751.666	5842
751.79	5799
751.915	5751
752.039	5706
752.163	5668
752.287	5698
752.412	5773
752.536	5647
752.66	5758
752.785	5653
752.909	5605
753.033	5593
753.157	5645
753.282	5680
753.406	5588
753.53	5571
753.654	5513
753.779	5582
753.903	5521
754.027	5472
754.151	5427
754.275	5508
754.4	5374
754.524	5439
754.648	5424
754.772	5427
754.896	5417
755.02	5333
755.145	5338
755.269	5335
755.393	5297
755.517	5347
755.641	5229
755.765	5242
755.889	5212
756.013	5263
756.138	5140
756.262	5179
756.386	5195
756.51	5072
756.634	5111
756.758	5075
756.882	5140
757.006	5115
757.13	5132
757.254	5110
757.378	5072
757.502	4956
757.626	5029
757.75	4997
757.874	5032
757.998	4974
758.122	4961
758.246	4973
758.37	4965
758.494	4975
758.618	4954
758.742	4803
758.866	4882
758.99	4859
759.114	4805
759.238	4838
759.362	4781
759.486	4810
759.61	4804
759.734	4750
759.858	4731
759.982	4709
760.106	4662
760.23	4678
760.353	4695
760.477	4709
760.601	4677
760.725	4631
760.849	4595
760.973	4620
761.097	4542
761.221	4511
761.344	4629
761.468	4587
761.592	4532
761.716	4595
761.84	4489
761.963	4551
762.087	4499
762.211	4491
762.335	4515
762.459	4502
762.582	4433
762.706	4458
762.83	4372
762.954	4346
763.078	4406
763.201	4380
763.325	4382
763.449	4345
763.572	4287
763.696	4269
763.82	4385
763.944	4337
764.067	4287
764.191	4301
764.315	4275
764.438	4311
764.562	4206
764.686	4267
764.809	4240
764.933	4181
765.057	4204
765.18	4210
765.304	4211
765.428	4170
765.551	4181
765.675	4195
765.798	4111
765.922	4102
766.046	4182
766.169	4026
766.293	4098
766.416	4027
766.54	4008
766.664	4109
766.787	4020
766.911	4056
767.034	4049
767.158	4059
767.281	4037
767.405	4012
767.528	3957
767.652	3921
767.775	3942
767.899	3950
768.022	3965
768.146	3901
768.269	3917
768.393	3910
768.516	3860
768.64	3871
768.763	3827
768.887	3855
769.01	3825
769.134	3895
769.257	3839
769.381	3780
769.504	3789
769.627	3744
769.751	3759
769.874	3775
769.998	3735
770.121	3780
770.244	3728
770.368	3745
770.491	3710
770.614	3681
770.738	3622
770.861	3704
770.985	3674
771.108	3622
771.231	3634
771.355	3641
771.478	3587
771.601	3589
771.724	3600
771.848	3636
771.971	3574
772.094	3575
772.218	3602
772.341	3507
772.464	3533
772.587	3503
772.711	3561
772.834	3496
772.957	3517
773.08	3487
773.204	3441
773.327	3469
773.45	3430
773.573	3469
773.696	3478
773.82	3437
773.943	3423
774.066	3362
774.189	3413
774.312	3392
774.436	3452
774.559	3350
774.682	3359
774.805	3356
774.928	3317
775.051	3312
775.174	3394
775.297	3325
775.421	3337
775.544	3317
775.667	3257
775.79	3303
775.913	3293
776.036	3282
776.159	3325
776.282	3253
776.405	3256
776.528	3192
776.651	3208
776.774	3177
776.897	3205
777.02	3209
777.143	3228
777.266	3198
777.389	3152
777.512	3119
777.635	3153
777.758	3137
777.881	3083
778.004	3104
778.127	3103
778.25	3088
778.373	3091
778.496	3151
778.619	3099
778.742	3094
778.865	3106
778.988	3071
779.111	3067
779.234	3073
779.357	3057
779.48	3121
779.602	3040
779.725	2972
779.848	2993
779.971	2976
780.094	2954
780.217	3009
780.34	2993
780.462	2983
780.585	2960
780.708	2947
780.831	2948
780.954	2936
781.077	2913
781.199	2869
781.322	2903
781.445	2898
781.568	2942
781.691	2909
781.813	2909
781.936	2860
782.059	2917
782.182	2885
782.304	2878
782.427	2869
782.55	2841
782.672	2846
782.795	2817
782.918	2789
783.041	2852
783.163	2776
783.286	2811
783.409	2779
783.531	2786
783.654	2740
783.777	2747
783.899	2751
784.022	2804
784.145	2770
784.267	2793
784.39	2697
784.512	2678
784.635	2727
784.758	2695
784.88	2722
785.003	2729
785.125	2694
785.248	2638
785.371	2663
785.493	2667
785.616	2674
785.738	2651
785.861	2710
785.983	2638
786.106	2632
786.228	2577
786.351	2645
786.473	2578
786.596	2617
786.718	2588
786.841	2626
786.963	2599
787.086	2614
787.208	2576
787.331	2583
787.453	2583
787.576	2616
787.698	2601
787.821	2577
787.943	2527
788.066	2607
788.188	2572
788.31	2572
788.433	2570
788.555	2536
788.678	2518
788.8	2514
788.922	2491
789.045	2508
789.167	2517
789.289	2509
789.412	2523
789.534	2499
789.656	2545
789.779	2482
789.901	2504
790.023	2510
790.146	2443
790.268	2458
790.39	2457
790.513	2481
790.635	2431
790.757	2423
790.879	2440
791.002	2470
791.124	2520
791.246	2425
791.368	2438
791.491	2459
791.613	2453
791.735	2430
791.857	2437
791.98	2422
792.102	2430
792.224	2422
792.346	2406
792.468	2371
792.59	2343
792.713	2379
792.835	2374
792.957	2336
793.079	2342
793.201	2377
793.323	2356
793.446	2392
793.568	2355
793.69	2379
793.812	2350
793.934	2346
794.056	2374
794.178	2337
794.3	2359
794.422	2331
794.544	2331
794.666	2310
794.788	2320
794.91	2264
795.033	2356
795.155	2320
795.277	2271
795.399	2301
795.521	2277
795.643	2285
795.765	2256
795.887	2299
796.009	2304
796.131	2299
796.253	2254
796.374	2266
796.496	2267
796.618	2252
796.74	2243
796.862	2267
796.984	2323
797.106	2233
797.228	2224
797.35	2239
797.472	2231
797.594	2244
797.716	2237
797.837	2221
797.959	2197
798.081	2209
798.203	2214
798.325	2223
798.447	2218
798.569	2193
798.69	2229
798.812	2181
798.934	2203
799.056	2181
799.178	2185
799.299	2175
799.421	2198
799.543	2185
799.665	2178
799.787	2188
799.908	2138
800.03	2192
800.152	2150
800.274	2175
800.395	2182
800.517	2207
800.639	2148
800.76	2134
800.882	2132
801.004	2135
801.126	2152
801.247	2131
801.369	2123
801.491	2116
801.612	2109
801.734	2122
801.856	2109
801.977	2136
802.099	2069
802.22	2142
802.342	2106
802.464	2102
802.585	2086
802.707	2109
802.828	2106
802.95	2096
803.072	2092
803.193	2075
803.315	2112
803.436	2085
803.558	2116
803.679	2060
803.801	2079
803.922	2070
804.044	2060
804.165	2079
804.287	2067
804.408	2076
804.53	1996
804.651	2023
804.773	2056
804.894	2041
805.016	2027
805.137	2060
805.259	2072
805.38	2005
805.502	2047
805.623	2028
805.745	2022
805.866	2033
805.987	2023
806.109	2019
806.23	2008
806.352	2036
806.473	2042
806.594	2009
806.716	2009
806.837	1970
806.958	1997
807.08	2007
807.201	2004
807.322	2021
807.444	2007
807.565	1997
807.686	1997
807.808	1978
807.929	1991
808.05	1995
808.171	1974
808.293	1983
808.414	1960
808.535	1936
808.657	1947
808.778	1966
808.899	1964
809.02	2001
809.141	1916
809.263	1936
809.384	1958
809.505	1945
809.626	1932
809.747	1954
809.869	1910
809.99	1984
810.111	1940
810.232	1952
810.353	1946
810.474	1914
810.596	1936
810.717	1933
810.838	1954
810.959	1911
811.08	1912
811.201	1957
811.322	1906
811.443	1904
811.564	1896
811.686	1921
811.807	1913
811.928	1894
812.049	1871
812.17	1909
812.291	1916
812.412	1889
812.533	1905
812.654	1909
812.775	1895
812.896	1874
813.017	1913
813.138	1909
813.259	1871
813.38	1875
813.501	1851
813.622	1830
813.743	1887
813.864	1855
813.985	1885
814.105	1861
814.226	1846
814.347	1836
814.468	1863
814.589	1848
814.71	1821
814.831	1844
814.952	1841
815.073	1865
815.194	1840
815.314	1805
815.435	1845
815.556	1832
815.677	1837
815.798	1828
815.919	1836
816.039	1833
816.16	1839
816.281	1863
816.402	1856
816.523	1840
816.643	1842
816.764	1833
816.885	1793
817.006	1809
817.126	1793
817.247	1771
817.368	1792
817.489	1852
817.609	1809
817.73	1794
817.851	1826
817.971	1797
818.092	1789
818.213	1816
818.333	1771
818.454	1804
818.575	1812
818.695	1779
818.816	1793
818.937	1799
819.057	1818
819.178	1808
819.299	1778
819.419	1808
819.54	1777
819.66	1736
819.781	1815
819.902	1773
820.022	1789
820.143	1774
820.263	1754
820.384	1780
820.504	1783
820.625	1789
820.745	1776
820.866	1780
820.987	1797
821.107	1746
821.228	1759
821.348	1741
821.469	1749
821.589	1728
821.709	1722
821.83	1753
821.95	1747
822.071	1756
822.191	1776
822.312	1729
822.432	1744
822.553	1754
822.673	1697
822.793	1741
822.914	1757
823.034	1723
823.155	1773
823.275	1709
823.395	1721
823.516	1732
823.636	1731
823.756	1749
823.877	1743
823.997	1712
824.117	1712
824.238	1706
824.358	1675
824.478	1713
824.599	1749
824.719	1693
824.839	1736
824.959	1712
825.08	1703
825.2	1707
825.32	1698
825.44	1705
825.561	1673
825.681	1702
825.801	1706
825.921	1710
826.042	1687
826.162	1699
826.282	1691
826.402	1684
826.522	1663
826.643	1712
826.763	1701
826.883	1718
827.003	1658
827.123	1674
827.243	1681
827.363	1681
827.484	1689
827.604	1712
827.724	1684
827.844	1687
827.964	1692
828.084	1687
828.204	1690
828.324	1704
828.444	1687
828.564	1681
828.684	1706
828.804	1661
828.924	1660
829.044	1648
829.164	1688
829.284	1676
829.404	1666
829.524	1679
829.644	1662
829.764	1672
829.884	1633
830.004	1657
830.124	1636
830.244	1679
830.364	1687
830.484	1670
830.604	1647
830.724	1650
830.844	1644
830.964	1652
830.961	1692
831.086	1680
831.21	1706
831.334	1697
831.459	1662
831.583	1671
831.707	1663
831.832	1643
831.956	1666
832.08	1675
832.204	1655
832.329	1672
832.453	1684
832.577	1640
832.701	1657
832.826	1669
832.95	1665
833.074	1631
833.198	1644
833.323	1677
833.447	1638
833.571	1682
833.695	1610
833.819	1658
833.944	1634
834.068	1662
834.192	1674
834.316	1656
834.44	1642
834.564	1641
834.689	1620
834.813	1663
834.937	1633
835.061	1627
835.185	1635
835.309	1648
835.433	1663
835.558	1625
835.682	1606
835.806	1641
835.93	1640
836.054	1657
836.178	1649
836.302	1652
836.426	1623
836.55	1618
836.674	1609
836.798	1635
836.922	1639
837.046	1621
837.17	1633
837.295	1605
837.419	1613
837.543	1609
837.667	1632
837.791	1624
837.915	1608
838.039	1614
838.163	1628
838.287	1648
838.411	1578
838.535	1614
838.659	1622
838.782	1597
838.906	1621
839.03	1606
839.154	1616
839.278	1624
839.402	1593
839.526	1613
839.65	1609
839.774	1590
839.898	1601
840.022	1608
840.146	1590
840.27	1600
840.393	1590
840.517	1594
840.641	1579
840.765	1576
840.889	1596
841.013	1567
841.137	1595
841.261	1594
841.384	1606
841.508	1587
841.632	1587
841.756	1582
841.88	1616
842.004	1571
842.127	1603
842.251	1594
842.375	1574
842.499	1569
842.622	1612
842.746	1563
842.87	1583
842.994	1593
843.118	1579
843.241	1570
843.365	1565
843.489	1560
843.613	1565
843.736	1564
843.86	1583
843.984	1572
844.107	1573
844.231	1601
844.355	1580
844.479	1566
844.602	1587
844.726	1569
844.85	1558
844.973	1568
845.097	1574
845.221	1569
845.344	1542
845.468	1566
845.592	1554
845.715	1562
845.839	1547
845.962	1547
846.086	1537
846.21	1555
846.333	1564
846.457	1534
846.58	1557
846.704	1548
846.828	1543
846.951	1571
847.075	1571
847.198	1564
847.322	1557
847.445	1544
847.569	1551
847.693	1542
847.816	1519
847.94	1557
848.063	1557
848.187	1539
848.31	1554
848.434	1519
848.557	1572
848.681	1549
848.804	1544
848.928	1532
849.051	1543
849.175	1509
849.298	1523
849.421	1535
849.545	1520
849.668	1545
849.792	1526
849.915	1528
850.039	1553
850.162	1502
850.286	1511
850.409	1520
850.532	1519
850.656	1516
850.779	1525
850.902	1519
851.026	1533
851.149	1559
851.273	1515
851.396	1536
851.519	1544
851.643	1496
851.766	1508
851.889	1526
852.013	1525
852.136	1529
852.259	1514
852.383	1484
852.506	1551
852.629	1541
852.753	1526
852.876	1511
852.999	1502
853.122	1516
853.246	1506
853.369	1510
853.492	1532
853.615	1527
853.739	1514
853.862	1512
853.985	1511
854.108	1510
854.232	1486
854.355	1500
854.478	1484
854.601	1512
854.724	1500
854.848	1515
854.971	1484
855.094	1488
855.217	1508
855.34	1508
855.463	1494
855.587	1473
855.71	1465
855.833	1475
855.956	1501
856.079	1489
856.202	1457
856.325	1536
856.449	1491
856.572	1492
856.695	1492
856.818	1509
856.941	1490
857.064	1494
857.187	1510
857.31	1495
857.433	1460
857.556	1460
857.679	1479
857.802	1511
857.925	1478
858.048	1495
858.171	1497
858.294	1511
858.417	1479
858.54	1501
858.663	1464
858.786	1479
858.909	1477
859.032	1465
859.155	1473
859.278	1471
859.401	1494
859.524	1462
859.647	1475
859.77	1479
859.893	1457
860.016	1452
860.139	1485
860.262	1468
860.385	1482
860.508	1468
860.631	1453
860.754	1458
860.876	1495
860.999	1480
861.122	1472
861.245	1433
861.368	1451
861.491	1466
861.614	1464
861.736	1476
861.859	1450
861.982	1445
862.105	1426
862.228	1467
862.351	1477
862.473	1453
862.596	1485
862.719	1449
862.842	1463
862.965	1445
863.087	1484
863.21	1456
863.333	1449
863.456	1445
863.578	1460
863.701	1433
863.824	1451
863.947	1447
864.069	1455
864.192	1443
864.315	1468
864.438	1467
864.56	1442
864.683	1461
864.806	1445
864.928	1468
865.051	1463
865.174	1438
865.296	1444
865.419	1434
865.542	1445
865.664	1446
865.787	1435
865.91	1445
866.032	1412
866.155	1448
866.277	1417
866.4	1451
866.523	1435
866.645	1452
866.768	1442
866.89	1409
867.013	1451
867.136	1431
867.258	1456
867.381	1439
867.503	1414
867.626	1444
867.748	1448
867.871	1414
867.993	1423
868.116	1429
868.238	1455
868.361	1418
868.483	1451
868.606	1442
868.728	1462
868.851	1405
868.973	1424
869.096	1448
869.218	1420
869.341	1408
869.463	1413
869.586	1419
869.708	1403
869.83	1427
869.953	1407
870.075	1417
870.198	1414
870.32	1417
870.442	1452
870.565	1430
870.687	1430
870.81	1433
870.932	1417
871.054	1422
871.177	1425
871.299	1431
871.421	1414
871.544	1419
871.666	1411
871.788	1401
871.911	1396
872.033	1437
872.155	1397
872.278	1415
872.4	1432
872.522	1416
872.645	1413
872.767	1408
872.889	1424
873.011	1406
873.134	1430
873.256	1434
873.378	1398
873.5	1398
873.623	1396
873.745	1423
873.867	1398
873.989	1414
874.111	1397
874.234	1391
874.356	1421
874.478	1408
874.6	1426
874.722	1417
874.845	1421
874.967	1389
875.089	1379
875.211	1409
875.333	1406
875.455	1410
875.577	1406
875.7	1414
875.822	1409
875.944	1411
876.066	1389
876.188	1386
876.31	1414
876.432	1384
876.554	1386
876.676	1400
876.798	1384
876.92	1388
877.042	1384
877.164	1409
877.287	1407
877.409	1395
877.531	1379
877.653	1394
877.775	1386
877.897	1414
878.019	1398
878.141	1383
878.263	1398
878.385	1407
878.507	1396
878.628	1380
878.75	1383
878.872	1384
878.994	1379
879.116	1377
879.238	1366
879.36	1364
879.482	1400
879.604	1368
879.726	1393
879.848	1358
879.97	1391
880.092	1380
880.213	1373
880.335	1385
880.457	1389
880.579	1372
880.701	1381
880.823	1366
880.945	1356
881.066	1391
881.188	1389
881.31	1390
881.432	1370
881.554	1360
881.675	1368
881.797	1380
881.919	1349
882.041	1372
882.163	1380
882.284	1381
882.406	1384
882.528	1374
882.65	1363
882.771	1381
882.893	1366
883.015	1353
883.137	1383
883.258	1356
883.38	1358
883.502	1362
883.623	1374
883.745	1351
883.867	1353
883.988	1372
884.11	1340
884.232	1378
884.353	1340
884.475	1366
884.597	1353
884.718	1363
884.84	1366
884.962	1343
885.083	1365
885.205	1371
885.326	1356
885.448	1360
885.57	1357
885.691	1344
885.813	1364
885.934	1345
886.056	1356
886.177	1375
886.299	1348
886.421	1366
886.542	1355
886.664	1338
886.785	1340
886.907	1374
887.028	1360
887.15	1350
887.271	1348
887.393	1358
887.514	1334
887.636	1349
887.757	1352
887.879	1342
888	1328
888.121	1357
888.243	1340
888.364	1319
888.486	1353
888.607	1352
888.729	1311
888.85	1356
888.971	1337
889.093	1349
889.214	1344
889.336	1340
889.457	1335
889.578	1363
889.7	1354
889.821	1335
889.942	1325
890.064	1342
890.185	1321
890.306	1318
890.428	1344
890.549	1318
890.67	1333
890.792	1328
890.913	1328
891.034	1336
891.156	1350
891.277	1340
891.398	1331
891.519	1350
891.641	1310
891.762	1310
891.883	1346
892.004	1356
892.126	1333
892.247	1319
892.368	1321
892.489	1321
892.61	1308
892.732	1342
892.853	1331
892.974	1314
893.095	1320
893.216	1314
893.337	1330
893.459	1305
893.58	1321
893.701	1333
893.822	1306
893.943	1292
894.064	1327
894.185	1314
894.306	1321
894.428	1305
894.549	1304
894.67	1319
894.791	1331
894.912	1325
895.033	1316
895.154	1318
895.275	1312
895.396	1315
895.517	1317
895.638	1302
895.759	1300
895.88	1325
896.001	1303
896.122	1318
896.243	1325
896.364	1297
896.485	1295
896.606	1298
896.727	1315
896.848	1317
896.969	1282
897.09	1304
897.211	1297
897.332	1279
897.453	1301
897.574	1315
897.695	1311
897.816	1299
897.936	1299
898.057	1311
898.178	1294
898.299	1297
898.42	1290
898.541	1289
898.662	1294
898.783	1283
898.903	1294
899.024	1272
899.145	1297
899.266	1284
899.387	1284
899.507	1274
899.628	1310
899.749	1301
899.87	1305
899.991	1299
900.111	1293
900.232	1299
900.353	1283
900.474	1296
900.594	1276
900.715	1289
900.836	1278
900.957	1292
901.077	1287
901.198	1284
901.319	1288
901.439	1284
901.56	1277
901.681	1282
901.802	1277
901.922	1280
902.043	1296
902.164	1308
902.284	1293
902.405	1293
902.525	1302
902.646	1288
902.767	1269
902.887	1274
903.008	1267
903.129	1275
903.249	1272
903.37	1276
903.49	1289
903.611	1264
903.731	1294
903.852	1293
903.973	1257
904.093	1270
904.214	1291
904.334	1274
904.455	1276
904.575	1283
904.696	1247
904.816	1293
904.937	1254
905.057	1281
905.178	1259
905.298	1260
905.419	1274
905.539	1276
905.66	1263
905.78	1271
905.9	1248
906.021	1263
906.141	1282
906.262	1263
906.382	1270
906.503	1256
906.623	1271
906.743	1262
906.864	1269
906.984	1262
907.104	1247
907.225	1275
907.345	1262
907.466	1265
907.586	1245
907.706	1265
907.827	1251
907.947	1253
908.067	1240
908.188	1252
908.308	1268
908.428	1248
908.548	1251
908.669	1249
908.789	1253
908.909	1245
909.029	1248
909.15	1255
909.27	1241
909.39	1276
909.51	1238
909.631	1255
909.751	1252
909.871	1258
909.991	1241
910.111	1239
910.232	1229
910.352	1246
910.472	1232
910.592	1237
910.712	1238
910.832	1237
910.953	1242
911.073	1243
911.193	1238
911.313	1240
911.433	1231
911.553	1234
911.673	1238
911.793	1235
911.914	1225
912.034	1230
912.154	1226
912.274	1233
912.394	1239
912.514	1229
912.634	1241
912.754	1230
912.874	1208
912.994	1222
913.114	1231
913.234	1230
913.354	1238
913.474	1230
913.594	1233
913.714	1217
913.834	1233
913.954	1225
914.074	1227
914.194	1217
914.314	1202
914.434	1224
914.554	1240
914.674	1214
914.794	1226
914.913	1209
915.033	1221
915.153	1235
915.273	1211
915.393	1211
915.513	1218
915.633	1246
915.753	1225
915.872	1219
915.992	1223
916.112	1217
916.232	1209
916.352	1213
916.472	1223
916.591	1216
916.711	1228
916.831	1229
916.951	1220
917.071	1220
917.19	1216
917.31	1221
917.43	1214
917.55	1208
917.669	1220
917.789	1200
917.909	1209
918.029	1202
918.148	1221
918.268	1208
918.388	1220
918.507	1220
918.627	1209
918.747	1216
918.866	1212
918.986	1207
919.106	1216
919.225	1216
919.345	1232
919.465	1216
919.584	1205
919.704	1206
919.824	1211
919.943	1218
920.063	1208
920.182	1228
920.302	1208
920.421	1200
920.541	1208
920.661	1200
920.78	1216
920.9	1213
921.019	1202
921.139	1200
921.258	1206
921.378	1202
921.497	1204
921.617	1223
921.736	1203
921.856	1206
921.975	1204
922.095	1205
922.214	1195
922.334	1204
922.453	1209
922.573	1208
922.692	1205
922.812	1207
922.931	1203
923.05	1207
923.17	1220
923.289	1198
923.409	1212
923.528	1211
923.647	1215
923.767	1190
923.886	1203
924.005	1194
924.125	1195
924.244	1205
924.363	1202
924.483	1199
924.602	1200
924.721	1205
924.841	1195
924.96	1212
925.079	1206
925.199	1201
925.318	1196
925.437	1194
925.556	1209
925.676	1208
925.795	1181
925.914	1193
926.033	1199
926.153	1192
926.272	1202
926.391	1208
926.51	1193
926.629	1199
926.749	1208
926.868	1208
926.987	1208
927.106	1209
927.225	1209
927.345	1185
927.464	1190
927.583	1186
927.702	1197
927.821	1213
927.94	1188
928.059	1196
928.178	1176
928.297	1196
928.417	1191
928.536	1188
928.655	1195
928.774	1178
928.893	1171
929.012	1194
929.131	1204
929.25	1184
929.369	1173
929.488	1183
929.607	1193
929.726	1185
929.845	1189
929.964	1176
930.083	1177
930.202	1197
930.321	1202
930.44	1188
930.559	1173
930.678	1197
930.797	1191
930.916	1190
931.035	1181
931.154	1218
931.272	1177
931.391	1184
931.51	1205
931.629	1189
931.748	1181
931.867	1182
931.986	1192
932.105	1178
932.223	1186
932.342	1177
932.461	1181
932.58	1171
932.699	1174
932.818	1174
932.936	1189
933.055	1180
933.174	1167
933.293	1173
933.412	1183
933.53	1180
933.649	1179
933.768	1192
933.887	1190
934.005	1183
934.124	1185
934.243	1174
934.361	1180
934.48	1179
934.599	1179
934.718	1182
934.836	1161
934.955	1196
935.074	1174
935.192	1183
935.311	1178
935.43	1181
935.548	1157
935.667	1180
935.785	1163
935.904	1185
936.023	1171
936.141	1155
936.26	1175
936.378	1162
936.497	1181
936.616	1173
936.734	1170
936.853	1162
936.971	1175
937.09	1165
937.208	1168
937.327	1178
937.445	1193
937.564	1164
937.682	1175
937.801	1162
937.919	1175
938.038	1160
938.156	1175
938.275	1172
938.393	1164
938.512	1160
938.63	1167
938.749	1171
938.867	1181
938.986	1165
939.104	1155
939.222	1169
939.341	1183
939.459	1167
939.577	1161
939.696	1169
939.814	1158
939.933	1163
940.051	1146
940.169	1153
940.288	1164
940.406	1144
940.524	1163
940.643	1159
940.761	1163
940.879	1175
940.998	1152
941.116	1156
941.234	1160
941.352	1149
941.471	1158
941.589	1153
941.707	1162
941.825	1163
941.944	1163
942.062	1152
942.18	1152
942.298	1150
942.416	1152
942.535	1157
942.653	1152
942.771	1153
942.889	1146
943.007	1153
943.125	1154
943.244	1157
943.362	1156
943.48	1164
943.598	1151
943.716	1149
943.834	1151
943.952	1152
944.07	1150
944.189	1135
944.307	1149
944.425	1162
944.543	1146
944.661	1132
944.779	1148
944.897	1165
945.015	1136
945.133	1156
945.251	1150
945.369	1142
945.487	1166
945.605	1152
945.723	1154
945.841	1157
945.959	1148
946.077	1151
946.195	1164
946.313	1142
946.431	1152
946.549	1137
946.667	1138
946.785	1153
946.902	1146
947.02	1143
947.138	1129
947.256	1154
947.374	1136
947.492	1133
947.61	1150
947.728	1143
947.845	1139
947.963	1141
948.081	1142
948.199	1136
948.317	1144
948.435	1160
948.552	1135
948.67	1131
948.788	1118
948.906	1132
949.024	1144
949.141	1133
949.259	1151
949.377	1159
949.495	1124
949.612	1140
949.73	1147
949.848	1130
949.965	1137
950.083	1139
950.201	1123
950.318	1139
950.436	1125
950.554	1126
950.672	1128
950.789	1132
950.907	1128
951.024	1140
951.142	1127
951.26	1128
951.377	1135
951.495	1129
951.613	1124
951.73	1121
951.848	1141
951.965	1116
952.083	1125
952.2	1139
952.318	1121
952.436	1137
952.553	1125
952.671	1128
952.788	1138
952.906	1145
953.023	1118
953.141	1134
953.258	1130
953.376	1125
953.493	1112
953.611	1115
953.728	1118
953.845	1132
953.963	1126
954.08	1126
954.198	1131
