Wavelength	PL390-MAO-Cr-Mau2
nm	Counts
449.342	1016
449.472	1009
449.602	1021
449.732	1006
449.862	1019
449.992	1013
450.122	1010
450.252	1008
450.382	1012
450.512	1009
450.642	1015
450.772	1018
450.902	1019
451.032	1014
451.162	1015
451.292	1020
451.422	1018
451.552	1012
451.682	1012
451.812	1014
451.942	1016
452.071	1010
452.201	1009
452.331	1011
452.461	1023
452.591	1015
452.721	1014
452.851	1021
452.981	1015
453.111	1020
453.241	1018
453.371	1014
453.501	1014
453.63	1016
453.76	1012
453.89	1017
454.02	1019
454.15	1016
454.28	1018
454.41	1009
454.539	1011
454.669	1014
454.799	1016
454.929	1023
455.059	1012
455.189	1011
455.318	1017
455.448	1017
455.578	1008
455.708	1015
455.838	1012
455.968	1013
456.097	1024
456.227	1016
456.357	1021
456.487	1011
456.617	1013
456.746	1017
456.876	1016
457.006	1017
457.136	1012
457.265	1008
457.395	1015
457.525	1018
457.655	1016
457.784	1013
457.914	1015
458.044	1017
458.174	1014
458.303	1008
458.433	1013
458.563	1016
458.692	1018
458.822	1014
458.952	1019
459.081	1012
459.211	1011
459.341	1012
459.47	1016
459.6	1020
459.73	1025
459.86	1020
459.989	1019
460.119	1013
460.248	1017
460.378	1018
460.508	1010
460.637	1015
460.767	1019
460.897	1023
461.026	1015
461.156	1014
461.286	1021
461.415	1011
461.545	1015
461.674	1017
461.804	1019
461.933	1019
462.063	1012
462.193	1016
462.322	1019
462.452	1009
462.581	1021
462.711	1011
462.84	1014
462.97	1007
463.1	1017
463.229	1015
463.359	1017
463.488	1017
463.618	1027
463.747	1016
463.877	1016
464.006	1010
464.136	1015
464.265	1012
464.395	1017
464.524	1017
464.654	1020
464.783	1015
464.913	1017
465.042	1019
465.172	1018
465.301	1013
465.431	1011
465.56	1023
465.69	1017
465.819	1017
465.948	1014
466.078	1022
466.207	1017
466.337	1015
466.466	1015
466.596	1010
466.725	1014
466.854	1018
466.984	1015
467.113	1016
467.243	1016
467.372	1013
467.501	1013
467.631	1017
467.76	1018
467.889	1020
468.019	1017
468.148	1024
468.278	1013
468.407	1018
468.536	1012
468.666	1015
468.795	1016
468.924	1017
469.054	1017
469.183	1015
469.312	1024
469.442	1013
469.571	1018
469.7	1012
469.829	1012
469.959	1015
470.088	1015
470.217	1010
470.347	1023
470.476	1014
470.605	1015
470.734	1019
470.864	1013
470.993	1011
471.122	1019
471.251	1016
471.381	1013
471.51	1017
471.639	1010
471.768	1018
471.898	1019
472.027	1011
472.156	1022
472.285	1023
472.414	1020
472.544	1016
472.673	1022
472.802	1016
472.931	1016
473.06	1015
473.189	1015
473.319	1011
473.448	1013
473.577	1014
473.706	1014
473.835	1022
473.964	1022
474.094	1022
474.223	1019
474.352	1018
474.481	1014
474.61	1019
474.739	1017
474.868	1014
474.997	1017
475.126	1022
475.256	1016
475.385	1020
475.514	1012
475.643	1023
475.772	1024
475.901	1018
476.03	1019
476.159	1020
476.288	1017
476.417	1014
476.546	1023
476.675	1018
476.804	1021
476.933	1016
477.062	1020
477.191	1023
477.32	1017
477.449	1015
477.578	1014
477.707	1021
477.836	1015
477.965	1020
478.094	1012
478.223	1014
478.352	1014
478.481	1012
478.61	1021
478.739	1014
478.868	1017
478.997	1020
479.126	1018
479.255	1016
479.384	1024
479.513	1015
479.642	1023
479.771	1018
479.9	1014
480.028	1024
480.157	1016
480.286	1017
480.415	1013
480.544	1020
480.673	1012
480.802	1023
480.931	1017
481.06	1013
481.188	1020
481.317	1022
481.446	1018
481.575	1025
481.704	1015
481.833	1017
481.961	1017
482.09	1021
482.219	1017
482.348	1024
482.477	1018
482.606	1021
482.734	1018
482.863	1022
482.992	1025
483.121	1020
483.249	1019
483.378	1028
483.507	1023
483.636	1017
483.765	1024
483.893	1017
484.022	1016
484.151	1021
484.28	1013
484.408	1024
484.537	1022
484.666	1018
484.794	1018
484.923	1016
485.052	1018
485.181	1026
485.309	1020
485.438	1024
485.567	1018
485.695	1022
485.824	1022
485.953	1024
486.081	1021
486.21	1022
486.339	1020
486.467	1024
486.596	1022
486.725	1019
486.853	1013
486.982	1022
487.11	1018
487.239	1022
487.368	1017
487.496	1018
487.625	1024
487.754	1023
487.882	1021
488.011	1018
488.139	1024
488.268	1014
488.396	1023
488.525	1023
488.654	1027
488.782	1017
488.911	1018
489.039	1022
489.168	1019
489.296	1021
489.425	1020
489.553	1024
489.682	1029
489.81	1024
489.939	1021
490.067	1020
490.196	1022
490.324	1022
490.453	1024
490.581	1021
490.71	1021
490.838	1021
490.967	1028
491.095	1024
491.224	1024
491.352	1015
491.481	1016
491.609	1030
491.738	1023
491.866	1022
491.994	1025
492.123	1017
492.251	1019
492.38	1021
492.508	1022
492.636	1024
492.765	1021
492.893	1020
493.022	1026
493.15	1020
493.278	1024
493.407	1021
493.535	1017
493.663	1022
493.792	1019
493.92	1013
494.049	1021
494.177	1029
494.305	1027
494.434	1021
494.562	1026
494.69	1020
494.818	1022
494.947	1023
495.075	1017
495.203	1019
495.332	1022
495.46	1016
495.588	1036
495.716	1029
495.845	1020
495.973	1020
496.101	1029
496.23	1024
496.358	1023
496.486	1029
496.614	1017
496.742	1025
496.871	1029
496.999	1024
497.127	1021
497.255	1021
497.384	1023
497.512	1026
497.64	1027
497.768	1021
497.896	1025
498.024	1025
498.153	1021
498.281	1024
498.409	1025
498.537	1021
498.665	1033
498.793	1019
498.922	1017
499.05	1019
499.178	1030
499.306	1018
499.434	1028
499.562	1025
499.69	1025
499.818	1027
499.947	1029
500.075	1015
500.203	1022
500.331	1024
500.459	1025
500.587	1024
500.715	1023
500.843	1021
500.971	1028
501.099	1022
501.227	1026
501.355	1022
501.483	1028
501.611	1029
501.739	1017
501.867	1028
501.995	1022
502.123	1029
502.251	1030
502.379	1022
502.507	1024
502.635	1023
502.763	1031
502.891	1022
503.019	1025
503.147	1028
503.275	1023
503.403	1024
503.531	1019
503.659	1021
503.787	1023
503.915	1022
504.043	1022
504.171	1024
504.299	1028
504.426	1022
504.554	1029
504.682	1023
504.81	1026
504.938	1018
505.066	1026
505.194	1021
505.322	1024
505.449	1022
505.577	1021
505.705	1021
505.833	1028
505.961	1025
506.089	1030
506.217	1024
506.344	1024
506.472	1033
506.6	1017
506.728	1017
506.856	1027
506.983	1032
507.111	1024
507.239	1027
507.367	1022
507.495	1031
507.622	1021
507.75	1022
507.878	1031
508.006	1031
508.133	1027
508.261	1024
508.389	1021
508.516	1020
508.644	1022
508.772	1025
508.9	1023
509.027	1027
509.155	1023
509.283	1027
509.41	1027
509.538	1031
509.666	1027
509.793	1031
509.921	1038
510.049	1023
510.176	1024
510.304	1024
510.432	1018
510.559	1022
510.687	1018
510.815	1023
510.942	1019
511.07	1032
511.197	1023
511.325	1020
511.453	1024
511.58	1027
511.708	1021
511.835	1020
511.963	1027
512.091	1032
512.218	1025
512.346	1033
512.473	1029
512.601	1028
512.728	1026
512.856	1021
512.983	1020
513.111	1029
513.238	1025
513.366	1019
513.494	1030
513.621	1021
513.749	1026
513.876	1027
514.003	1023
514.131	1028
514.258	1022
514.386	1025
514.513	1020
514.641	1027
514.768	1029
514.896	1021
515.023	1020
515.151	1027
515.278	1026
515.405	1014
515.533	1033
515.66	1024
515.788	1023
515.915	1022
516.042	1031
516.17	1021
516.297	1026
516.425	1026
516.552	1021
516.679	1028
516.807	1031
516.934	1029
517.061	1021
517.189	1032
517.316	1023
517.443	1026
517.571	1031
517.698	1026
517.825	1027
517.953	1029
518.08	1024
518.207	1025
518.335	1020
518.462	1028
518.589	1022
518.716	1025
518.844	1027
518.971	1028
519.098	1026
519.226	1031
519.353	1023
519.48	1030
519.607	1028
519.734	1023
519.862	1028
519.989	1027
520.116	1031
520.243	1029
520.371	1026
520.498	1031
520.625	1029
520.752	1027
520.879	1024
521.006	1030
521.134	1024
521.261	1027
521.388	1022
521.515	1026
521.642	1021
521.769	1035
521.896	1026
522.024	1026
522.151	1024
522.278	1035
522.405	1027
522.532	1035
522.659	1027
522.786	1027
522.913	1023
523.04	1031
523.167	1031
523.295	1028
523.422	1024
523.549	1027
523.676	1030
523.803	1029
523.93	1031
524.057	1022
524.184	1024
524.311	1024
524.438	1033
524.565	1030
524.692	1026
524.819	1025
524.946	1028
525.073	1027
525.2	1026
525.327	1025
525.454	1024
525.581	1034
525.708	1026
525.835	1029
525.962	1020
526.088	1025
526.215	1022
526.342	1029
526.469	1027
526.596	1034
526.723	1029
526.85	1028
526.977	1021
527.104	1030
527.231	1033
527.358	1027
527.484	1032
527.611	1025
527.738	1027
527.865	1028
527.992	1029
528.119	1027
528.246	1029
528.372	1033
528.499	1027
528.626	1028
528.753	1022
528.88	1021
529.006	1024
529.133	1026
529.26	1031
529.387	1031
529.514	1033
529.64	1029
529.767	1025
529.894	1026
530.021	1020
530.147	1023
530.274	1024
530.401	1024
530.528	1025
530.654	1028
530.781	1032
530.908	1036
531.034	1017
531.161	1026
531.288	1018
531.414	1019
531.541	1031
531.668	1028
531.795	1025
531.921	1026
532.048	1033
532.174	1023
532.301	1028
532.428	1031
532.554	1026
532.681	1023
532.808	1034
532.934	1029
533.061	1026
533.187	1034
533.314	1026
533.441	1032
533.567	1036
533.694	1031
533.82	1021
533.947	1024
534.074	1027
534.2	1026
534.327	1027
534.453	1025
534.58	1025
534.706	1030
534.833	1034
534.959	1028
535.086	1028
535.212	1026
535.339	1030
535.465	1021
535.592	1040
535.718	1030
535.845	1027
535.971	1028
536.098	1034
536.224	1022
536.351	1033
536.477	1037
536.604	1029
536.73	1034
536.856	1026
536.983	1026
537.109	1028
537.236	1025
537.362	1026
537.488	1032
537.615	1028
537.741	1037
537.868	1027
537.994	1030
538.12	1032
538.247	1037
538.373	1027
538.499	1025
538.626	1024
538.752	1033
538.878	1032
539.005	1025
539.131	1026
539.257	1029
539.384	1029
539.51	1027
539.636	1026
539.763	1033
539.889	1023
540.015	1028
540.141	1028
540.268	1027
540.394	1030
540.52	1031
540.646	1023
540.773	1025
540.899	1023
541.025	1022
541.151	1032
541.278	1038
541.404	1032
541.53	1035
541.656	1030
541.782	1035
541.909	1035
542.035	1032
542.161	1034
542.287	1027
542.413	1028
542.539	1033
542.665	1032
542.792	1022
542.918	1036
543.044	1031
543.17	1023
543.296	1034
543.422	1034
543.548	1031
543.674	1037
543.801	1029
543.927	1025
544.053	1024
544.179	1034
544.305	1034
544.431	1031
544.557	1026
544.683	1028
544.809	1023
544.935	1030
545.061	1034
545.187	1031
545.313	1031
545.439	1031
545.565	1032
545.691	1031
545.817	1037
545.943	1031
546.069	1029
546.195	1033
546.321	1029
546.447	1033
546.573	1030
546.699	1023
546.825	1031
546.951	1024
547.077	1035
547.203	1028
547.329	1031
547.454	1023
547.58	1026
547.706	1034
547.832	1025
547.958	1021
548.084	1029
548.21	1023
548.336	1027
548.462	1027
548.587	1027
548.713	1028
548.839	1027
548.965	1027
549.091	1028
549.217	1028
549.342	1041
549.468	1027
549.594	1019
549.72	1031
549.846	1028
549.971	1034
550.097	1032
550.223	1024
550.349	1030
550.474	1026
550.6	1036
550.726	1031
550.852	1027
550.977	1028
551.103	1027
551.229	1036
551.355	1027
551.48	1030
551.606	1029
551.732	1027
551.857	1021
551.983	1032
552.109	1035
552.234	1027
552.36	1033
552.486	1046
552.611	1030
552.737	1025
552.863	1032
552.988	1042
553.114	1026
553.24	1030
553.365	1030
553.491	1039
553.616	1031
553.742	1025
553.868	1025
553.993	1033
554.119	1019
554.244	1030
554.37	1032
554.495	1034
554.621	1023
554.746	1035
554.872	1027
554.998	1032
555.123	1028
555.249	1033
555.374	1027
555.5	1027
555.625	1025
555.751	1036
555.876	1026
556.002	1030
556.127	1027
556.252	1028
556.378	1038
556.503	1032
556.629	1026
556.754	1034
556.88	1034
557.005	1031
557.131	1037
557.256	1026
557.381	1027
557.507	1024
557.632	1030
557.758	1030
557.883	1029
558.008	1024
558.134	1030
558.259	1031
558.384	1031
558.51	1028
558.635	1032
558.76	1033
558.886	1026
559.011	1030
559.136	1028
559.262	1036
559.387	1033
559.512	1035
559.638	1029
559.763	1029
559.888	1028
560.013	1030
560.139	1033
560.264	1033
560.389	1028
560.514	1029
560.64	1031
560.765	1027
560.89	1034
561.015	1032
561.141	1031
561.266	1023
561.391	1033
561.516	1024
561.641	1035
561.767	1031
561.892	1035
562.017	1029
562.142	1034
562.267	1025
562.392	1029
562.518	1030
562.643	1031
562.768	1027
562.893	1034
563.018	1029
563.143	1034
563.268	1024
563.393	1026
563.518	1026
563.644	1038
563.769	1028
563.894	1032
564.019	1036
564.144	1030
564.269	1033
564.394	1027
564.519	1031
564.644	1037
564.769	1032
564.894	1022
565.019	1036
565.144	1036
565.269	1033
565.394	1032
565.519	1030
565.644	1026
565.769	1033
565.894	1032
566.019	1031
566.144	1033
566.269	1032
566.394	1032
566.519	1039
566.644	1045
566.769	1026
566.893	1033
567.018	1034
567.143	1026
567.268	1036
567.393	1027
567.518	1030
567.643	1028
567.768	1034
567.893	1027
568.017	1040
568.142	1031
568.267	1027
568.392	1035
568.517	1036
568.642	1026
568.766	1032
568.891	1032
569.016	1018
569.141	1032
569.266	1032
569.39	1037
569.515	1026
569.64	1027
569.765	1033
569.889	1028
570.014	1028
570.139	1037
570.264	1029
570.388	1026
570.513	1029
570.638	1025
570.762	1028
570.887	1027
571.012	1028
571.137	1035
571.261	1034
571.386	1025
571.511	1027
571.635	1032
571.76	1028
571.885	1032
572.009	1029
572.134	1027
572.258	1024
572.383	1030
572.508	1030
572.632	1028
572.757	1034
572.881	1028
573.006	1029
573.131	1023
573.255	1034
573.38	1032
573.504	1030
573.629	1022
573.753	1029
573.878	1024
574.003	1027
574.127	1034
574.252	1034
574.376	1026
574.501	1031
574.625	1031
574.75	1030
574.874	1031
574.999	1034
575.123	1030
575.248	1033
575.372	1035
575.496	1039
575.621	1028
575.745	1031
575.87	1043
575.994	1027
576.119	1036
576.243	1024
576.367	1036
576.492	1028
576.616	1029
576.741	1031
576.865	1032
576.989	1036
577.114	1036
577.238	1032
577.362	1030
577.487	1028
577.611	1036
577.735	1035
577.86	1030
577.984	1025
578.108	1034
578.233	1032
578.357	1023
578.481	1034
578.606	1035
578.73	1031
578.854	1034
578.978	1032
578.977	1026
579.106	1030
579.234	1028
579.362	1020
579.491	1030
579.619	1032
579.747	1020
579.875	1028
580.004	1030
580.132	1026
580.26	1024
580.388	1024
580.517	1027
580.645	1023
580.773	1025
580.901	1032
581.03	1026
581.158	1030
581.286	1031
581.414	1022
581.542	1025
581.671	1030
581.799	1024
581.927	1029
582.055	1025
582.183	1024
582.312	1024
582.44	1035
582.568	1027
582.696	1032
582.824	1024
582.952	1033
583.08	1031
583.209	1022
583.337	1029
583.465	1029
583.593	1033
583.721	1031
583.849	1031
583.977	1022
584.105	1029
584.233	1031
584.362	1027
584.49	1035
584.618	1030
584.746	1025
584.874	1023
585.002	1032
585.13	1029
585.258	1030
585.386	1035
585.514	1031
585.642	1024
585.77	1027
585.898	1033
586.026	1023
586.154	1028
586.282	1023
586.41	1036
586.538	1031
586.666	1033
586.794	1033
586.922	1036
587.05	1028
587.178	1033
587.306	1035
587.434	1037
587.562	1028
587.69	1028
587.818	1034
587.946	1031
588.074	1027
588.202	1032
588.33	1029
588.458	1032
588.586	1025
588.714	1033
588.842	1038
588.97	1036
589.097	1025
589.225	1034
589.353	1030
589.481	1039
589.609	1031
589.737	1040
589.865	1039
589.993	1026
590.121	1038
590.248	1027
590.376	1035
590.504	1043
590.632	1037
590.76	1039
590.888	1039
591.015	1031
591.143	1034
591.271	1046
591.399	1044
591.527	1035
591.655	1039
591.782	1036
591.91	1039
592.038	1044
592.166	1032
592.294	1036
592.421	1047
592.549	1041
592.677	1038
592.805	1050
592.932	1039
593.06	1041
593.188	1033
593.316	1034
593.443	1045
593.571	1043
593.699	1041
593.826	1037
593.954	1047
594.082	1044
594.21	1053
594.337	1038
594.465	1042
594.593	1039
594.72	1043
594.848	1043
594.976	1044
595.103	1040
595.231	1052
595.359	1044
595.486	1036
595.614	1043
595.742	1051
595.869	1046
595.997	1047
596.124	1050
596.252	1045
596.38	1055
596.507	1044
596.635	1044
596.763	1044
596.89	1034
597.018	1039
597.145	1048
597.273	1049
597.4	1051
597.528	1045
597.656	1047
597.783	1061
597.911	1055
598.038	1039
598.166	1051
598.293	1046
598.421	1046
598.548	1053
598.676	1043
598.803	1055
598.931	1045
599.058	1059
599.186	1052
599.313	1052
599.441	1052
599.568	1058
599.696	1056
599.823	1047
599.951	1055
600.078	1041
600.206	1065
600.333	1055
600.461	1057
600.588	1057
600.715	1053
600.843	1063
600.97	1058
601.098	1060
601.225	1050
601.353	1060
601.48	1056
601.607	1045
601.735	1051
601.862	1059
601.99	1064
602.117	1059
602.244	1061
602.372	1063
602.499	1068
602.626	1071
602.754	1058
602.881	1065
603.008	1062
603.136	1065
603.263	1079
603.39	1066
603.518	1059
603.645	1056
603.772	1059
603.9	1069
604.027	1079
604.154	1072
604.281	1065
604.409	1070
604.536	1075
604.663	1064
604.791	1066
604.918	1073
605.045	1067
605.172	1080
605.3	1068
605.427	1066
605.554	1078
605.681	1078
605.809	1080
605.936	1080
606.063	1068
606.19	1082
606.317	1082
606.445	1073
606.572	1080
606.699	1074
606.826	1071
606.953	1080
607.08	1075
607.208	1084
607.335	1077
607.462	1067
607.589	1069
607.716	1077
607.843	1081
607.97	1072
608.098	1078
608.225	1079
608.352	1076
608.479	1071
608.606	1071
608.733	1082
608.86	1084
608.987	1085
609.114	1103
609.241	1098
609.369	1096
609.496	1093
609.623	1085
609.75	1090
609.877	1099
610.004	1073
610.131	1089
610.258	1084
610.385	1092
610.512	1092
610.639	1087
610.766	1095
610.893	1088
611.02	1091
611.147	1083
611.274	1096
611.401	1092
611.528	1112
611.655	1094
611.782	1086
611.909	1098
612.036	1101
612.163	1096
612.29	1103
612.417	1095
612.543	1104
612.67	1109
612.797	1106
612.924	1094
613.051	1094
613.178	1102
613.305	1103
613.432	1108
613.559	1097
613.686	1105
613.813	1098
613.939	1111
614.066	1102
614.193	1109
614.32	1107
614.447	1105
614.574	1118
614.701	1127
614.827	1111
614.954	1122
615.081	1103
615.208	1104
615.335	1120
615.461	1116
615.588	1119
615.715	1110
615.842	1137
615.969	1130
616.095	1120
616.222	1116
616.349	1126
616.476	1124
616.602	1113
616.729	1137
616.856	1135
616.983	1125
617.109	1113
617.236	1126
617.363	1139
617.49	1130
617.616	1121
617.743	1130
617.87	1122
617.996	1135
618.123	1125
618.25	1132
618.376	1139
618.503	1127
618.63	1128
618.756	1123
618.883	1138
619.01	1138
619.136	1133
619.263	1137
619.39	1129
619.516	1154
619.643	1144
619.769	1127
619.896	1122
620.023	1148
620.149	1144
620.276	1132
620.402	1130
620.529	1139
620.656	1154
620.782	1137
620.909	1153
621.035	1152
621.162	1154
621.288	1155
621.415	1155
621.541	1148
621.668	1162
621.795	1155
621.921	1156
622.048	1148
622.174	1163
622.301	1165
622.427	1156
622.554	1176
622.68	1149
622.807	1168
622.933	1186
623.059	1165
623.186	1153
623.312	1172
623.439	1168
623.565	1176
623.692	1178
623.818	1172
623.945	1178
624.071	1166
624.197	1177
624.324	1180
624.45	1185
624.577	1165
624.703	1189
624.829	1175
624.956	1192
625.082	1192
625.209	1185
625.335	1182
625.461	1188
625.588	1181
625.714	1183
625.84	1187
625.967	1196
626.093	1188
626.219	1196
626.346	1182
626.472	1199
626.598	1194
626.725	1179
626.851	1177
626.977	1213
627.103	1198
627.23	1220
627.356	1214
627.482	1214
627.608	1205
627.735	1221
627.861	1219
627.987	1203
628.113	1195
628.24	1210
628.366	1215
628.492	1229
628.618	1215
628.745	1218
628.871	1220
628.997	1223
629.123	1215
629.249	1222
629.376	1238
629.502	1242
629.628	1224
629.754	1243
629.88	1231
630.006	1229
630.132	1214
630.259	1231
630.385	1242
630.511	1235
630.637	1238
630.763	1228
630.889	1230
631.015	1237
631.141	1248
631.268	1256
631.394	1257
631.52	1239
631.646	1272
631.772	1254
631.898	1251
632.024	1300
632.15	1260
632.276	1264
632.402	1256
632.528	1287
632.654	1271
632.78	1270
632.906	1273
633.032	1263
633.158	1292
633.284	1288
633.41	1284
633.536	1285
633.662	1289
633.788	1262
633.914	1273
634.04	1275
634.166	1304
634.292	1310
634.418	1301
634.544	1330
634.67	1300
634.796	1280
634.922	1319
635.048	1314
635.173	1314
635.299	1310
635.425	1308
635.551	1309
635.677	1316
635.803	1341
635.929	1315
636.055	1346
636.181	1336
636.306	1342
636.432	1328
636.558	1319
636.684	1318
636.81	1333
636.936	1335
637.061	1327
637.187	1344
637.313	1346
637.439	1363
637.565	1348
637.69	1366
637.816	1327
637.942	1363
638.068	1367
638.193	1365
638.319	1349
638.445	1348
638.571	1371
638.696	1366
638.822	1371
638.948	1393
639.074	1368
639.199	1400
639.325	1389
639.451	1384
639.577	1390
639.702	1402
639.828	1388
639.954	1391
640.079	1419
640.205	1414
640.331	1395
640.456	1407
640.582	1409
640.708	1417
640.833	1414
640.959	1412
641.084	1435
641.21	1437
641.336	1435
641.461	1446
641.587	1433
641.712	1455
641.838	1446
641.964	1478
642.089	1449
642.215	1444
642.34	1472
642.466	1489
642.592	1462
642.717	1476
642.843	1496
642.968	1473
643.094	1514
643.219	1497
643.345	1474
643.47	1498
643.596	1502
643.721	1503
643.847	1534
643.972	1535
644.098	1533
644.223	1528
644.349	1546
644.474	1542
644.6	1559
644.725	1560
644.85	1568
644.976	1556
645.101	1554
645.227	1553
645.352	1610
645.478	1584
645.603	1567
645.728	1577
645.854	1578
645.979	1590
646.105	1583
646.23	1619
646.355	1631
646.481	1627
646.606	1597
646.731	1619
646.857	1639
646.982	1645
647.107	1648
647.233	1652
647.358	1673
647.483	1665
647.609	1705
647.734	1688
647.859	1692
647.985	1701
648.11	1722
648.235	1716
648.36	1744
648.486	1712
648.611	1774
648.736	1726
648.862	1722
648.987	1728
649.112	1748
649.237	1783
649.362	1781
649.488	1783
649.613	1796
649.738	1848
649.863	1814
649.988	1861
650.114	1832
650.239	1837
650.364	1889
650.489	1861
650.614	1905
650.74	1901
650.865	1897
650.99	1937
651.115	1933
651.24	1888
651.365	1929
651.49	2028
651.615	1938
651.741	1972
651.866	2015
651.991	2023
652.116	2016
652.241	2025
652.366	2044
652.491	1996
652.616	2047
652.741	1996
652.866	2039
652.991	2065
653.116	2070
653.241	2060
653.366	2051
653.491	2074
653.616	2091
653.741	2059
653.866	2078
653.991	2055
654.116	2058
654.241	2116
654.366	2112
654.491	2096
654.616	2125
654.741	2110
654.866	2152
654.991	2163
655.116	2147
655.241	2163
655.366	2193
655.491	2217
655.616	2250
655.741	2272
655.866	2304
655.99	2332
656.115	2375
656.24	2402
656.365	2408
656.49	2405
656.615	2445
656.74	2419
656.865	2475
656.989	2454
657.114	2468
657.239	2491
657.364	2539
657.489	2539
657.614	2496
657.738	2577
657.863	2583
657.988	2625
658.113	2591
658.238	2630
658.362	2641
658.487	2624
658.612	2633
658.737	2662
658.861	2680
658.986	2714
659.111	2688
659.236	2717
659.36	2768
659.485	2778
659.61	2806
659.734	2825
659.859	2883
659.984	2850
660.108	2966
660.233	2978
660.358	2967
660.482	3066
660.607	3100
660.732	3084
660.856	3133
660.981	3130
661.106	3192
661.23	3202
661.355	3321
661.48	3299
661.604	3285
661.729	3378
661.853	3349
661.978	3420
662.103	3368
662.227	3448
662.352	3457
662.476	3486
662.601	3536
662.725	3496
662.85	3612
662.974	3618
663.099	3593
663.224	3691
663.348	3649
663.473	3650
663.597	3721
663.722	3637
663.846	3745
663.971	3709
664.095	3813
664.219	3864
664.344	3816
664.468	3858
664.593	3871
664.717	3916
664.842	3921
664.966	3978
665.091	3988
665.215	4041
665.339	4080
665.464	4067
665.588	4081
665.713	4087
665.837	4136
665.961	4083
666.086	4173
666.21	4136
666.335	4182
666.459	4158
666.583	4217
666.708	4235
666.832	4286
666.956	4243
667.081	4225
667.205	4264
667.329	4350
667.454	4340
667.578	4304
667.702	4307
667.826	4371
667.951	4376
668.075	4331
668.199	4394
668.324	4394
668.448	4380
668.572	4450
668.696	4395
668.82	4414
668.945	4371
669.069	4494
669.193	4461
669.317	4496
669.442	4537
669.566	4542
669.69	4559
669.814	4552
669.938	4591
670.062	4593
670.187	4660
670.311	4736
670.435	4830
670.559	4787
670.683	4912
670.807	4848
670.931	5064
671.056	4965
671.18	5122
671.304	5148
671.428	5198
671.552	5303
671.676	5439
671.8	5470
671.924	5458
672.048	5691
672.172	5692
672.296	5688
672.42	5684
672.544	5812
672.669	5883
672.793	5931
672.917	5978
673.041	6003
673.165	6076
673.289	6186
673.413	6386
673.537	6342
673.661	6457
673.785	6449
673.908	6678
674.032	6582
674.156	6766
674.28	6755
674.404	6890
674.528	7043
674.652	6978
674.776	7090
674.9	7240
675.024	7322
675.148	7357
675.272	7284
675.396	7342
675.519	7317
675.643	7474
675.767	7502
675.891	7393
676.015	7313
676.139	7251
676.263	7389
676.386	7184
676.51	7216
676.634	7281
676.758	7175
676.882	7169
677.005	7098
677.129	7122
677.253	6961
677.377	6931
677.501	6935
677.624	6881
677.748	6875
677.872	6813
677.996	6700
678.119	6621
678.243	6603
678.367	6583
678.491	6552
678.614	6530
678.738	6361
678.862	6303
678.985	6375
679.109	6321
679.233	6200
679.356	6163
679.48	6095
679.604	6096
679.727	5999
679.851	5961
679.975	5926
680.098	5874
680.222	5855
680.346	5795
680.469	5748
680.593	5668
680.716	5741
680.84	5665
680.963	5619
681.087	5577
681.211	5518
681.334	5559
681.458	5518
681.581	5542
681.705	5559
681.828	5610
681.952	5457
682.075	5450
682.199	5432
682.322	5530
682.446	5574
682.569	5574
682.693	5656
682.816	5708
682.94	5837
683.063	5987
683.187	6240
683.31	6459
683.434	6734
683.557	7063
683.681	7485
683.804	8068
683.928	8619
684.051	9445
684.174	10258
684.298	11113
684.421	12196
684.545	13194
684.668	14473
684.791	15471
684.915	16559
685.038	17559
685.161	18454
685.285	19361
685.408	20275
685.531	20901
685.655	21701
685.778	22367
685.901	23214
686.025	23789
686.148	24536
686.271	25217
686.395	25983
686.518	26713
686.641	27154
686.764	27980
686.888	28364
687.011	28784
687.134	29063
687.257	29513
687.381	29563
687.504	30109
687.627	30048
687.75	30025
687.873	29872
687.997	30048
688.12	29819
688.243	29912
688.366	29625
688.489	29389
688.613	29040
688.736	28650
688.859	28488
688.982	28010
689.105	27708
689.228	27149
689.351	26551
689.475	25995
689.598	25518
689.721	24938
689.844	24545
689.967	23945
690.09	23512
690.213	22963
690.336	22374
690.459	22032
690.582	21423
690.705	20926
690.828	20665
690.951	20160
691.074	19760
691.197	19427
691.32	19359
691.443	19011
691.566	18695
691.689	18474
691.812	18299
691.935	18220
692.058	17976
692.181	17868
692.304	17755
692.427	17629
692.55	17390
692.673	17357
692.796	17316
692.919	17122
693.042	16955
693.165	16778
693.288	16799
693.411	16657
693.533	16594
693.656	16457
693.779	16334
693.902	16253
694.025	16073
694.148	15892
694.271	15827
694.393	15672
694.516	15787
694.639	15510
694.762	15486
694.885	15462
695.008	15470
695.13	15314
695.253	15334
695.376	15416
695.499	15315
695.622	15394
695.744	15313
695.867	15289
695.99	15373
696.113	15392
696.235	15162
696.358	15257
696.481	15351
696.603	15325
696.726	15537
696.849	15369
696.972	15585
697.094	15467
697.217	15700
697.34	15636
697.462	15714
697.585	15448
697.708	15545
697.83	15399
697.953	15530
698.075	15262
698.198	15219
698.321	15204
698.443	15375
698.566	15173
698.688	15121
698.811	15043
698.934	14970
699.056	14934
699.179	14880
699.301	14584
699.424	14725
699.546	14557
699.669	14492
699.792	14521
699.914	14268
700.037	14107
700.159	14152
700.282	13910
700.404	13864
700.527	13752
700.649	13672
700.772	13449
700.894	13256
701.016	13307
701.139	13093
701.261	13079
701.384	12867
701.506	12779
701.629	12684
701.751	12564
701.873	12383
701.996	12377
702.118	12407
702.241	12363
702.363	12176
702.485	12147
702.608	12088
702.73	12023
702.853	12023
702.975	12014
703.097	12124
703.22	12155
703.342	12213
703.464	12219
703.587	12180
703.709	12353
703.831	12418
703.953	12342
704.076	12444
704.198	12511
704.32	12603
704.442	12735
704.565	12713
704.687	12828
704.809	12852
704.931	12850
705.054	13081
705.176	13141
705.298	13085
705.42	13366
705.543	13394
705.665	13243
705.787	13497
705.909	13591
706.031	13623
706.025	15644
706.151	15758
706.278	15730
706.404	15793
706.531	15904
706.657	15705
706.783	15768
706.91	15961
707.036	15783
707.162	15819
707.289	15718
707.415	15738
707.541	15698
707.668	15624
707.794	15710
707.92	15415
708.047	15459
708.173	15395
708.299	15247
708.426	15162
708.552	15085
708.678	15022
708.805	14990
708.931	14912
709.057	14781
709.183	14595
709.31	14471
709.436	14525
709.562	14391
709.688	14124
709.815	13988
709.941	14111
710.067	13829
710.193	13818
710.32	13585
710.446	13405
710.572	13350
710.698	13300
710.824	13171
710.951	13121
711.077	12985
711.203	12852
711.329	12818
711.455	12740
711.581	12689
711.708	12724
711.834	12495
711.96	12498
712.086	12313
712.212	12464
712.338	12206
712.464	12198
712.591	12000
712.717	12258
712.843	12085
712.969	11992
713.095	12039
713.221	12055
713.347	12113
713.473	12088
713.599	12103
713.725	12134
713.852	12036
713.978	12158
714.104	12261
714.23	12283
714.356	12173
714.482	12312
714.608	12301
714.734	12298
714.86	12360
714.986	12515
715.112	12700
715.238	12650
715.364	12827
715.49	12840
715.616	12962
715.742	12991
715.868	13052
715.994	13137
716.12	13250
716.246	13272
716.372	13210
716.498	13126
716.624	13132
716.75	13336
716.876	13162
717.002	13049
717.127	12933
717.253	12693
717.379	12540
717.505	12446
717.631	12324
717.757	12142
717.883	11989
718.009	11674
718.135	11634
718.261	11310
718.386	11093
718.512	11016
718.638	10885
718.764	10693
718.89	10611
719.016	10340
719.142	10259
719.267	10102
719.393	9998
719.519	9953
719.645	9754
719.771	9657
719.896	9505
720.022	9411
720.148	9376
720.274	9223
720.4	9182
720.525	9185
720.651	9074
720.777	8955
720.903	9036
721.029	9102
721.154	8898
721.28	8946
721.406	8889
721.531	8974
721.657	8853
721.783	8733
721.909	8785
722.034	8691
722.16	8576
722.286	8488
722.411	8375
722.537	8374
722.663	8260
722.789	8282
722.914	8221
723.04	7999
723.166	7930
723.291	7825
723.417	7763
723.542	7765
723.668	7673
723.794	7615
723.919	7510
724.045	7353
724.171	7430
724.296	7196
724.422	7196
724.547	7191
724.673	7053
724.799	7059
724.924	7020
725.05	6915
725.175	6872
725.301	6828
725.426	6683
725.552	6691
725.678	6634
725.803	6398
725.929	6564
726.054	6415
726.18	6489
726.305	6342
726.431	6328
726.556	6238
726.682	6233
726.807	6237
726.933	6161
727.058	6105
727.184	6134
727.309	6076
727.435	5992
727.56	5990
727.686	5901
727.811	5899
727.937	5816
728.062	5838
728.187	5774
728.313	5768
728.438	5727
728.564	5693
728.689	5690
728.815	5655
728.94	5664
729.065	5550
729.191	5516
729.316	5515
729.441	5488
729.567	5570
729.692	5572
729.818	5501
729.943	5497
730.068	5380
730.194	5338
730.319	5374
730.444	5351
730.57	5318
730.695	5334
730.82	5156
730.946	5249
731.071	5256
731.196	5159
731.321	5208
731.447	5124
731.572	5185
731.697	5036
731.823	5174
731.948	5035
732.073	5089
732.198	5099
732.324	5046
732.449	4981
732.574	5053
732.699	4906
732.825	4968
732.95	4902
733.075	4900
733.2	4879
733.325	4877
733.451	4864
733.576	4816
733.701	4877
733.826	4888
733.951	4676
734.077	4763
734.202	4752
734.327	4750
734.452	4742
734.577	4696
734.702	4764
734.827	4670
734.953	4640
735.078	4574
735.203	4591
735.328	4616
735.453	4666
735.578	4595
735.703	4575
735.828	4602
735.953	4582
736.078	4516
736.203	4546
736.329	4482
736.454	4575
736.579	4504
736.704	4538
736.829	4496
736.954	4472
737.079	4502
737.204	4487
737.329	4418
737.454	4428
737.579	4437
737.704	4442
737.829	4367
737.954	4355
738.079	4344
738.204	4367
738.329	4329
738.454	4394
738.579	4376
738.704	4334
738.829	4325
738.953	4323
739.078	4270
739.203	4318
739.328	4212
739.453	4293
739.578	4258
739.703	4202
739.828	4256
739.953	4228
740.078	4168
740.203	4208
740.327	4219
740.452	4114
740.577	4118
740.702	4156
740.827	4155
740.952	4105
741.077	4124
741.201	4149
741.326	4094
741.451	4043
741.576	4092
741.701	4105
741.825	4091
741.95	4054
742.075	4067
742.2	4027
742.325	3982
742.449	3982
742.574	3962
742.699	3971
742.824	3944
742.948	3986
743.073	3944
743.198	3912
743.323	3899
743.447	3838
743.572	3872
743.697	3889
743.821	3912
743.946	3822
744.071	3886
744.196	3779
744.32	3811
744.445	3792
744.57	3799
744.694	3765
744.819	3765
744.944	3743
745.068	3715
745.193	3707
745.318	3742
745.442	3699
745.567	3667
745.691	3667
745.816	3615
745.941	3680
746.065	3744
746.19	3632
746.314	3620
746.439	3607
746.564	3640
746.688	3556
746.813	3586
746.937	3576
747.062	3561
747.186	3511
747.311	3527
747.435	3588
747.56	3545
747.684	3462
747.809	3484
747.933	3423
748.058	3469
748.182	3520
748.307	3432
748.431	3457
748.556	3469
748.68	3459
748.805	3438
748.929	3471
749.054	3409
749.178	3370
749.303	3372
749.427	3409
749.552	3404
749.676	3336
749.8	3357
749.925	3355
750.049	3315
750.174	3311
750.298	3344
750.422	3320
750.547	3253
750.671	3356
750.796	3236
750.92	3292
751.044	3314
751.169	3276
751.293	3268
751.417	3189
751.542	3197
751.666	3208
751.79	3177
751.915	3151
752.039	3169
752.163	3184
752.287	3141
752.412	3138
752.536	3139
752.66	3168
752.785	3141
752.909	3110
753.033	3094
753.157	3132
753.282	3057
753.406	3063
753.53	3029
753.654	3037
753.779	3059
753.903	3089
754.027	3057
754.151	3005
754.275	3047
754.4	3044
754.524	3015
754.648	3040
754.772	3018
754.896	3001
755.02	2924
755.145	3014
755.269	2979
755.393	3013
755.517	2929
755.641	2934
755.765	2946
755.889	2956
756.013	2934
756.138	2936
756.262	2938
756.386	2928
756.51	2894
756.634	2847
756.758	2843
756.882	2947
757.006	2830
757.13	2862
757.254	2886
757.378	2841
757.502	2872
757.626	2854
757.75	2806
757.874	2799
757.998	2791
758.122	2804
758.246	2814
758.37	2852
758.494	2832
758.618	2782
758.742	2769
758.866	2800
758.99	2760
759.114	2768
759.238	2746
759.362	2752
759.486	2746
759.61	2763
759.734	2708
759.858	2684
759.982	2670
760.106	2670
760.23	2708
760.353	2629
760.477	2664
760.601	2676
760.725	2687
760.849	2678
760.973	2640
761.097	2617
761.221	2692
761.344	2648
761.468	2602
761.592	2637
761.716	2621
761.84	2638
761.963	2587
762.087	2596
762.211	2621
762.335	2604
762.459	2587
762.582	2561
762.706	2582
762.83	2597
762.954	2615
763.078	2614
763.201	2567
763.325	2546
763.449	2527
763.572	2585
763.696	2537
763.82	2531
763.944	2574
764.067	2520
764.191	2484
764.315	2517
764.438	2551
764.562	2511
764.686	2509
764.809	2491
764.933	2489
765.057	2482
765.18	2454
765.304	2456
765.428	2454
765.551	2446
765.675	2487
765.798	2445
765.922	2432
766.046	2400
766.169	2421
766.293	2411
766.416	2409
766.54	2414
766.664	2440
766.787	2412
766.911	2418
767.034	2368
767.158	2370
767.281	2373
767.405	2364
767.528	2375
767.652	2392
767.775	2315
767.899	2368
768.022	2324
768.146	2348
768.269	2316
768.393	2329
768.516	2355
768.64	2340
768.763	2285
768.887	2304
769.01	2334
769.134	2330
769.257	2299
769.381	2302
769.504	2312
769.627	2308
769.751	2263
769.874	2290
769.998	2325
770.121	2265
770.244	2311
770.368	2280
770.491	2236
770.614	2193
770.738	2261
770.861	2254
770.985	2274
771.108	2279
771.231	2232
771.355	2228
771.478	2215
771.601	2217
771.724	2222
771.848	2201
771.971	2249
772.094	2234
772.218	2186
772.341	2164
772.464	2205
772.587	2172
772.711	2209
772.834	2164
772.957	2181
773.08	2197
773.204	2184
773.327	2154
773.45	2172
773.573	2171
773.696	2123
773.82	2145
773.943	2161
774.066	2118
774.189	2154
774.312	2116
774.436	2144
774.559	2107
774.682	2122
774.805	2128
774.928	2117
775.051	2124
775.174	2082
775.297	2125
775.421	2124
775.544	2090
775.667	2096
775.79	2086
775.913	2119
776.036	2090
776.159	2033
776.282	2079
776.405	2028
776.528	2042
776.651	2048
776.774	2045
776.897	2056
777.02	2057
777.143	2027
777.266	2061
777.389	2017
777.512	2047
777.635	2037
777.758	2020
777.881	2029
778.004	2042
778.127	2013
778.25	1976
778.373	1983
778.496	1983
778.619	1991
778.742	1986
778.865	2020
778.988	2007
779.111	1989
779.234	1995
779.357	1996
779.48	1978
779.602	2005
779.725	1983
779.848	1928
779.971	2007
780.094	1996
780.217	1943
780.34	1958
780.462	1977
780.585	1949
780.708	1966
780.831	1936
780.954	1939
781.077	1934
781.199	1905
781.322	1905
781.445	1961
781.568	1929
781.691	1958
781.813	1895
781.936	1945
782.059	1965
782.182	1942
782.304	1868
782.427	1885
782.55	1912
782.672	1895
782.795	1886
782.918	1866
783.041	1865
783.163	1869
783.286	1914
783.409	1866
783.531	1903
783.654	1857
783.777	1888
783.899	1877
784.022	1869
784.145	1853
784.267	1825
784.39	1860
784.512	1858
784.635	1848
784.758	1837
784.88	1850
785.003	1829
785.125	1837
785.248	1834
785.371	1864
785.493	1850
785.616	1815
785.738	1823
785.861	1806
785.983	1812
786.106	1802
786.228	1796
786.351	1836
786.473	1778
786.596	1776
786.718	1798
786.841	1786
786.963	1782
787.086	1766
787.208	1806
787.331	1812
787.453	1775
787.576	1769
787.698	1792
787.821	1791
787.943	1779
788.066	1774
788.188	1779
788.31	1771
788.433	1755
788.555	1762
788.678	1735
788.8	1779
788.922	1768
789.045	1741
789.167	1753
789.289	1717
789.412	1735
789.534	1736
789.656	1759
789.779	1703
789.901	1750
790.023	1723
790.146	1746
790.268	1741
790.39	1722
790.513	1700
790.635	1730
790.757	1721
790.879	1745
791.002	1728
791.124	1722
791.246	1726
791.368	1717
791.491	1731
791.613	1689
791.735	1721
791.857	1681
791.98	1698
792.102	1691
792.224	1689
792.346	1694
792.468	1728
792.59	1710
792.713	1685
792.835	1710
792.957	1682
793.079	1699
793.201	1717
793.323	1686
793.446	1674
793.568	1698
793.69	1678
793.812	1720
793.934	1658
794.056	1700
794.178	1682
794.3	1673
794.422	1676
794.544	1664
794.666	1677
794.788	1672
794.91	1673
795.033	1668
795.155	1688
795.277	1673
795.399	1651
795.521	1683
795.643	1639
795.765	1664
795.887	1635
796.009	1659
796.131	1629
796.253	1630
796.374	1637
796.496	1641
796.618	1654
796.74	1633
796.862	1640
796.984	1639
797.106	1650
797.228	1640
797.35	1629
797.472	1628
797.594	1618
797.716	1650
797.837	1630
797.959	1616
798.081	1626
798.203	1630
798.325	1627
798.447	1628
798.569	1651
798.69	1615
798.812	1637
798.934	1643
799.056	1613
799.178	1594
799.299	1671
799.421	1586
799.543	1633
799.665	1627
799.787	1597
799.908	1609
800.03	1645
800.152	1594
800.274	1610
800.395	1616
800.517	1597
800.639	1610
800.76	1586
800.882	1604
801.004	1585
801.126	1564
801.247	1576
801.369	1579
801.491	1575
801.612	1557
801.734	1572
801.856	1603
801.977	1552
802.099	1593
802.22	1562
802.342	1579
802.464	1584
802.585	1610
802.707	1561
802.828	1543
802.95	1575
803.072	1578
803.193	1595
803.315	1596
803.436	1556
803.558	1603
803.679	1577
803.801	1553
803.922	1541
804.044	1575
804.165	1564
804.287	1558
804.408	1554
804.53	1555
804.651	1572
804.773	1550
804.894	1568
805.016	1569
805.137	1566
805.259	1544
805.38	1579
805.502	1558
805.623	1546
805.745	1536
805.866	1535
805.987	1534
806.109	1545
806.23	1526
806.352	1567
806.473	1543
806.594	1525
806.716	1503
806.837	1525
806.958	1536
807.08	1522
807.201	1517
807.322	1533
807.444	1526
807.565	1538
807.686	1517
807.808	1510
807.929	1531
808.05	1520
808.171	1525
808.293	1541
808.414	1510
808.535	1489
808.657	1520
808.778	1516
808.899	1538
809.02	1514
809.141	1491
809.263	1537
809.384	1530
809.505	1508
809.626	1506
809.747	1484
809.869	1512
809.99	1518
810.111	1508
810.232	1502
810.353	1523
810.474	1514
810.596	1489
810.717	1517
810.838	1503
810.959	1516
811.08	1490
811.201	1490
811.322	1481
811.443	1480
811.564	1502
811.686	1487
811.807	1482
811.928	1477
812.049	1499
812.17	1496
812.291	1500
812.412	1480
812.533	1475
812.654	1477
812.775	1482
812.896	1472
813.017	1476
813.138	1486
813.259	1474
813.38	1495
813.501	1496
813.622	1467
813.743	1485
813.864	1482
813.985	1492
814.105	1466
814.226	1441
814.347	1459
814.468	1482
814.589	1450
814.71	1487
814.831	1485
814.952	1468
815.073	1465
815.194	1467
815.314	1468
815.435	1456
815.556	1466
815.677	1460
815.798	1454
815.919	1469
816.039	1471
816.16	1468
816.281	1473
816.402	1470
816.523	1486
816.643	1449
816.764	1455
816.885	1472
817.006	1429
817.126	1473
817.247	1448
817.368	1460
817.489	1462
817.609	1461
817.73	1440
817.851	1428
817.971	1453
818.092	1435
818.213	1448
818.333	1467
818.454	1452
818.575	1436
818.695	1456
818.816	1436
818.937	1445
819.057	1466
819.178	1430
819.299	1468
819.419	1433
819.54	1434
819.66	1455
819.781	1454
819.902	1436
820.022	1433
820.143	1424
820.263	1422
820.384	1433
820.504	1450
820.625	1431
820.745	1427
820.866	1455
820.987	1443
821.107	1453
821.228	1455
821.348	1410
821.469	1408
821.589	1428
821.709	1423
821.83	1458
821.95	1418
822.071	1423
822.191	1419
822.312	1411
822.432	1401
822.553	1417
822.673	1405
822.793	1429
822.914	1407
823.034	1423
823.155	1425
823.275	1392
823.395	1424
823.516	1444
823.636	1415
823.756	1423
823.877	1418
823.997	1395
824.117	1401
824.238	1414
824.358	1393
824.478	1421
824.599	1404
824.719	1400
824.839	1409
824.959	1401
825.08	1401
825.2	1393
825.32	1405
825.44	1418
825.561	1391
825.681	1384
825.801	1395
825.921	1377
826.042	1399
826.162	1397
826.282	1395
826.402	1412
826.522	1387
826.643	1385
826.763	1411
826.883	1384
827.003	1382
827.123	1400
827.243	1391
827.363	1405
827.484	1387
827.604	1380
827.724	1376
827.844	1409
827.964	1413
828.084	1411
828.204	1367
828.324	1394
828.444	1379
828.564	1418
828.684	1401
828.804	1396
828.924	1388
829.044	1387
829.164	1388
829.284	1382
829.404	1394
829.524	1402
829.644	1384
829.764	1369
829.884	1376
830.004	1365
830.124	1387
830.244	1382
830.364	1380
830.484	1361
830.604	1389
830.724	1378
830.844	1378
830.964	1379
830.961	1402
831.086	1401
831.21	1420
831.334	1417
831.459	1410
831.583	1427
831.707	1394
831.832	1385
831.956	1423
832.08	1384
832.204	1414
832.329	1412
832.453	1406
832.577	1410
832.701	1375
832.826	1411
832.95	1406
833.074	1387
833.198	1418
833.323	1397
833.447	1396
833.571	1381
833.695	1409
833.819	1404
833.944	1386
834.068	1395
834.192	1389
834.316	1391
834.44	1400
834.564	1392
834.689	1410
834.813	1375
834.937	1385
835.061	1400
835.185	1389
835.309	1371
835.433	1388
835.558	1391
835.682	1362
835.806	1390
835.93	1387
836.054	1388
836.178	1375
836.302	1390
836.426	1385
836.55	1391
836.674	1368
836.798	1378
836.922	1375
837.046	1357
837.17	1383
837.295	1368
837.419	1377
837.543	1399
837.667	1409
837.791	1385
837.915	1363
838.039	1374
838.163	1368
838.287	1375
838.411	1362
838.535	1337
838.659	1383
838.782	1364
838.906	1342
839.03	1385
839.154	1367
839.278	1379
839.402	1341
839.526	1367
839.65	1369
839.774	1346
839.898	1364
840.022	1367
840.146	1348
840.27	1364
840.393	1391
840.517	1382
840.641	1368
840.765	1369
840.889	1376
841.013	1341
841.137	1372
841.261	1359
841.384	1354
841.508	1366
841.632	1365
841.756	1356
841.88	1359
842.004	1400
842.127	1368
842.251	1347
842.375	1367
842.499	1368
842.622	1352
842.746	1345
842.87	1356
842.994	1383
843.118	1356
843.241	1368
843.365	1358
843.489	1346
843.613	1373
843.736	1334
843.86	1357
843.984	1355
844.107	1342
844.231	1354
844.355	1346
844.479	1345
844.602	1339
844.726	1356
844.85	1358
844.973	1340
845.097	1359
845.221	1333
845.344	1337
845.468	1338
845.592	1337
845.715	1345
845.839	1353
845.962	1362
846.086	1344
846.21	1324
846.333	1350
846.457	1358
846.58	1332
846.704	1335
846.828	1331
846.951	1333
847.075	1324
847.198	1342
847.322	1322
847.445	1357
847.569	1340
847.693	1355
847.816	1327
847.94	1308
848.063	1334
848.187	1329
848.31	1353
848.434	1349
848.557	1324
848.681	1334
848.804	1330
848.928	1334
849.051	1349
849.175	1362
849.298	1337
849.421	1359
849.545	1341
849.668	1327
849.792	1340
849.915	1331
850.039	1341
850.162	1330
850.286	1328
850.409	1322
850.532	1324
850.656	1326
850.779	1327
850.902	1315
851.026	1311
851.149	1326
851.273	1321
851.396	1333
851.519	1304
851.643	1330
851.766	1336
851.889	1308
852.013	1336
852.136	1327
852.259	1340
852.383	1318
852.506	1330
852.629	1335
852.753	1331
852.876	1318
852.999	1339
853.122	1331
853.246	1333
853.369	1304
853.492	1333
853.615	1308
853.739	1303
853.862	1324
853.985	1323
854.108	1316
854.232	1307
854.355	1311
854.478	1321
854.601	1311
854.724	1296
854.848	1306
854.971	1317
855.094	1320
855.217	1320
855.34	1319
855.463	1314
855.587	1316
855.71	1307
855.833	1301
855.956	1303
856.079	1306
856.202	1287
856.325	1301
856.449	1301
856.572	1302
856.695	1324
856.818	1312
856.941	1302
857.064	1334
857.187	1319
857.31	1337
857.433	1298
857.556	1302
857.679	1307
857.802	1329
857.925	1317
858.048	1305
858.171	1328
858.294	1307
858.417	1292
858.54	1298
858.663	1303
858.786	1307
858.909	1316
859.032	1294
859.155	1314
859.278	1308
859.401	1311
859.524	1303
859.647	1305
859.77	1303
859.893	1312
860.016	1292
860.139	1290
860.262	1298
860.385	1277
860.508	1300
860.631	1297
860.754	1313
860.876	1273
860.999	1281
861.122	1300
861.245	1290
861.368	1295
861.491	1283
861.614	1291
861.736	1314
861.859	1285
861.982	1294
862.105	1301
862.228	1303
862.351	1309
862.473	1284
862.596	1273
862.719	1308
862.842	1316
862.965	1304
863.087	1284
863.21	1285
863.333	1277
863.456	1277
863.578	1275
863.701	1299
863.824	1306
863.947	1289
864.069	1305
864.192	1275
864.315	1295
864.438	1293
864.56	1266
864.683	1298
864.806	1272
864.928	1298
865.051	1294
865.174	1286
865.296	1282
865.419	1287
865.542	1294
865.664	1275
865.787	1293
865.91	1287
866.032	1298
866.155	1293
866.277	1308
866.4	1303
866.523	1282
866.645	1275
866.768	1292
866.89	1287
867.013	1295
867.136	1294
867.258	1284
867.381	1277
867.503	1285
867.626	1292
867.748	1284
867.871	1286
867.993	1275
868.116	1272
868.238	1282
868.361	1272
868.483	1283
868.606	1283
868.728	1296
868.851	1283
868.973	1282
869.096	1287
869.218	1289
869.341	1272
869.463	1276
869.586	1279
869.708	1268
869.83	1252
869.953	1293
870.075	1277
870.198	1297
870.32	1271
870.442	1252
870.565	1262
870.687	1285
870.81	1275
870.932	1308
871.054	1280
871.177	1270
871.299	1279
871.421	1271
871.544	1277
871.666	1272
871.788	1286
871.911	1266
872.033	1264
872.155	1265
872.278	1266
872.4	1270
872.522	1276
872.645	1271
872.767	1275
872.889	1271
873.011	1255
873.134	1254
873.256	1283
873.378	1270
873.5	1272
873.623	1270
873.745	1261
873.867	1263
873.989	1263
874.111	1261
874.234	1268
874.356	1281
874.478	1272
874.6	1257
874.722	1280
874.845	1266
874.967	1255
875.089	1271
875.211	1276
875.333	1274
875.455	1282
875.577	1279
875.7	1268
875.822	1265
875.944	1264
876.066	1257
876.188	1268
876.31	1271
876.432	1280
876.554	1251
876.676	1277
876.798	1268
876.92	1255
877.042	1271
877.164	1252
877.287	1244
877.409	1247
877.531	1253
877.653	1270
877.775	1246
877.897	1267
878.019	1259
878.141	1263
878.263	1256
878.385	1270
878.507	1276
878.628	1273
878.75	1270
878.872	1254
878.994	1258
879.116	1271
879.238	1247
879.36	1252
879.482	1244
879.604	1244
879.726	1254
879.848	1254
879.97	1260
880.092	1254
880.213	1254
880.335	1246
880.457	1251
880.579	1259
880.701	1257
880.823	1268
880.945	1253
881.066	1243
881.188	1265
881.31	1239
881.432	1234
881.554	1254
881.675	1238
881.797	1261
881.919	1258
882.041	1265
882.163	1259
882.284	1254
882.406	1256
882.528	1243
882.65	1263
882.771	1259
882.893	1244
883.015	1238
883.137	1252
883.258	1239
883.38	1244
883.502	1249
883.623	1252
883.745	1248
883.867	1231
883.988	1239
884.11	1244
884.232	1241
884.353	1241
884.475	1235
884.597	1245
884.718	1237
884.84	1241
884.962	1248
885.083	1230
885.205	1243
885.326	1234
885.448	1247
885.57	1222
885.691	1219
885.813	1242
885.934	1264
886.056	1251
886.177	1263
886.299	1238
886.421	1243
886.542	1239
886.664	1254
886.785	1221
886.907	1226
887.028	1227
887.15	1231
887.271	1246
887.393	1249
887.514	1230
887.636	1230
887.757	1230
887.879	1246
888	1232
888.121	1248
888.243	1254
888.364	1236
888.486	1242
888.607	1236
888.729	1234
888.85	1234
888.971	1210
889.093	1227
889.214	1226
889.336	1216
889.457	1224
889.578	1226
889.7	1237
889.821	1245
889.942	1232
890.064	1241
890.185	1230
890.306	1227
890.428	1218
890.549	1237
890.67	1235
890.792	1229
890.913	1219
891.034	1230
891.156	1228
891.277	1223
891.398	1236
891.519	1206
891.641	1234
891.762	1217
891.883	1227
892.004	1204
892.126	1226
892.247	1238
892.368	1234
892.489	1219
892.61	1234
892.732	1231
892.853	1213
892.974	1224
893.095	1228
893.216	1205
893.337	1203
893.459	1217
893.58	1218
893.701	1235
893.822	1227
893.943	1212
894.064	1217
894.185	1225
894.306	1214
894.428	1220
894.549	1222
894.67	1221
894.791	1224
894.912	1221
895.033	1220
895.154	1223
895.275	1226
895.396	1216
895.517	1217
895.638	1202
895.759	1217
895.88	1205
896.001	1238
896.122	1210
896.243	1207
896.364	1216
896.485	1221
896.606	1198
896.727	1219
896.848	1207
896.969	1208
897.09	1195
897.211	1218
897.332	1194
897.453	1213
897.574	1193
897.695	1215
897.816	1215
897.936	1200
898.057	1214
898.178	1193
898.299	1206
898.42	1214
898.541	1212
898.662	1218
898.783	1207
898.903	1200
899.024	1204
899.145	1195
899.266	1205
899.387	1201
899.507	1200
899.628	1204
899.749	1214
899.87	1211
899.991	1184
900.111	1204
900.232	1211
900.353	1196
900.474	1207
900.594	1179
900.715	1199
900.836	1177
900.957	1199
901.077	1214
901.198	1200
901.319	1199
901.439	1195
901.56	1196
901.681	1199
901.802	1204
901.922	1209
902.043	1205
902.164	1190
902.284	1187
902.405	1204
902.525	1203
902.646	1220
902.767	1191
902.887	1196
903.008	1188
903.129	1194
903.249	1195
903.37	1207
903.49	1179
903.611	1200
903.731	1209
903.852	1183
903.973	1200
904.093	1193
904.214	1187
904.334	1185
904.455	1206
904.575	1195
904.696	1191
904.816	1193
904.937	1191
905.057	1194
905.178	1177
905.298	1185
905.419	1198
905.539	1186
905.66	1192
905.78	1190
905.9	1184
906.021	1195
906.141	1183
906.262	1193
906.382	1176
906.503	1173
906.623	1202
906.743	1186
906.864	1201
906.984	1179
907.104	1180
907.225	1176
907.345	1161
907.466	1188
907.586	1184
907.706	1183
907.827	1191
907.947	1189
908.067	1189
908.188	1161
908.308	1180
908.428	1175
908.548	1172
908.669	1173
908.789	1161
908.909	1176
909.029	1175
909.15	1165
909.27	1171
909.39	1163
909.51	1178
909.631	1171
909.751	1181
909.871	1176
909.991	1169
910.111	1178
910.232	1178
910.352	1174
910.472	1153
910.592	1163
910.712	1175
910.832	1164
910.953	1175
911.073	1173
911.193	1161
911.313	1162
911.433	1182
911.553	1170
911.673	1173
911.793	1173
911.914	1170
912.034	1169
912.154	1165
912.274	1168
912.394	1160
912.514	1181
912.634	1167
912.754	1150
912.874	1162
912.994	1159
913.114	1174
913.234	1163
913.354	1163
913.474	1169
913.594	1164
913.714	1173
913.834	1162
913.954	1149
914.074	1174
914.194	1171
914.314	1166
914.434	1148
914.554	1139
914.674	1170
914.794	1167
914.913	1164
915.033	1158
915.153	1162
915.273	1152
915.393	1159
915.513	1159
915.633	1148
915.753	1149
915.872	1161
915.992	1165
916.112	1150
916.232	1167
916.352	1147
916.472	1165
916.591	1156
916.711	1161
916.831	1146
916.951	1153
917.071	1156
917.19	1154
917.31	1154
917.43	1154
917.55	1143
917.669	1152
917.789	1152
917.909	1158
918.029	1167
918.148	1160
918.268	1146
918.388	1157
918.507	1153
918.627	1153
918.747	1154
918.866	1144
918.986	1158
919.106	1158
919.225	1170
919.345	1142
919.465	1146
919.584	1168
919.704	1153
919.824	1142
919.943	1155
920.063	1153
920.182	1162
920.302	1158
920.421	1149
920.541	1162
920.661	1147
920.78	1143
920.9	1145
921.019	1158
921.139	1146
921.258	1150
921.378	1134
921.497	1148
921.617	1135
921.736	1154
921.856	1142
921.975	1148
922.095	1146
922.214	1170
922.334	1154
922.453	1132
922.573	1149
922.692	1151
922.812	1144
922.931	1149
923.05	1157
923.17	1154
923.289	1143
923.409	1162
923.528	1150
923.647	1146
923.767	1152
923.886	1145
924.005	1136
924.125	1147
924.244	1147
924.363	1149
924.483	1138
924.602	1153
924.721	1134
924.841	1138
924.96	1143
925.079	1141
925.199	1143
925.318	1153
925.437	1147
925.556	1145
925.676	1148
925.795	1150
925.914	1139
926.033	1166
926.153	1151
926.272	1135
926.391	1146
926.51	1146
926.629	1148
926.749	1146
926.868	1127
926.987	1146
927.106	1142
927.225	1127
927.345	1147
927.464	1142
927.583	1150
927.702	1134
927.821	1130
927.94	1127
928.059	1132
928.178	1138
928.297	1131
928.417	1134
928.536	1134
928.655	1136
928.774	1150
928.893	1131
929.012	1143
929.131	1130
929.25	1142
929.369	1141
929.488	1128
929.607	1137
929.726	1140
929.845	1145
929.964	1148
930.083	1130
930.202	1135
930.321	1140
930.44	1130
930.559	1127
930.678	1143
930.797	1129
930.916	1132
931.035	1137
931.154	1138
931.272	1135
931.391	1143
931.51	1122
931.629	1136
931.748	1138
931.867	1132
931.986	1144
932.105	1122
932.223	1133
932.342	1146
932.461	1126
932.58	1126
932.699	1133
932.818	1131
932.936	1146
933.055	1129
933.174	1131
933.293	1130
933.412	1140
933.53	1131
933.649	1127
933.768	1117
933.887	1133
934.005	1133
934.124	1124
934.243	1122
934.361	1117
934.48	1140
934.599	1125
934.718	1138
934.836	1121
934.955	1126
935.074	1117
935.192	1122
935.311	1132
935.43	1136
935.548	1123
935.667	1131
935.785	1135
935.904	1128
936.023	1117
936.141	1126
936.26	1121
936.378	1136
936.497	1130
936.616	1112
936.734	1117
936.853	1130
936.971	1116
937.09	1117
937.208	1126
937.327	1119
937.445	1127
937.564	1118
937.682	1129
937.801	1136
937.919	1129
938.038	1133
938.156	1110
938.275	1112
938.393	1112
938.512	1105
938.63	1121
938.749	1110
938.867	1114
938.986	1119
939.104	1127
939.222	1122
939.341	1115
939.459	1115
939.577	1120
939.696	1119
939.814	1126
939.933	1127
940.051	1123
940.169	1121
940.288	1126
940.406	1125
940.524	1119
940.643	1127
940.761	1133
940.879	1132
940.998	1107
941.116	1129
941.234	1116
941.352	1129
941.471	1123
941.589	1123
941.707	1110
941.825	1121
941.944	1126
942.062	1124
942.18	1100
942.298	1118
942.416	1120
942.535	1097
942.653	1115
942.771	1128
942.889	1111
943.007	1128
943.125	1110
943.244	1105
943.362	1102
943.48	1109
943.598	1116
943.716	1107
943.834	1112
943.952	1109
944.07	1100
944.189	1120
944.307	1123
944.425	1111
944.543	1105
944.661	1111
944.779	1108
944.897	1107
945.015	1116
945.133	1106
945.251	1115
945.369	1096
945.487	1118
945.605	1097
945.723	1116
945.841	1105
945.959	1120
946.077	1111
946.195	1100
946.313	1109
946.431	1109
946.549	1103
946.667	1099
946.785	1111
946.902	1107
947.02	1121
947.138	1106
947.256	1111
947.374	1104
947.492	1115
947.61	1112
947.728	1116
947.845	1093
947.963	1107
948.081	1106
948.199	1107
948.317	1098
948.435	1098
948.552	1109
948.67	1102
948.788	1100
948.906	1110
949.024	1097
949.141	1104
949.259	1114
949.377	1098
949.495	1104
949.612	1103
949.73	1103
949.848	1105
949.965	1110
950.083	1110
950.201	1100
950.318	1096
950.436	1104
950.554	1097
950.672	1089
950.789	1097
950.907	1091
951.024	1090
951.142	1085
951.26	1098
951.377	1109
951.495	1102
951.613	1109
951.73	1092
951.848	1101
951.965	1095
952.083	1100
952.2	1104
952.318	1090
952.436	1102
952.553	1096
952.671	1085
952.788	1096
952.906	1097
953.023	1091
953.141	1110
953.258	1090
953.376	1087
953.493	1098
953.611	1110
953.728	1089
953.845	1095
953.963	1082
954.08	1083
954.198	1084
