Wavelength	PL390-MAO-Cr-Mau9
nm	Counts
449.342	1017
449.472	1023
449.602	1018
449.732	1019
449.862	1016
449.992	1017
450.122	1016
450.252	1022
450.382	1017
450.512	1018
450.642	1014
450.772	1020
450.902	1011
451.032	1028
451.162	1016
451.292	1019
451.422	1014
451.552	1011
451.682	1015
451.812	1018
451.942	1019
452.071	1022
452.201	1017
452.331	1018
452.461	1024
452.591	1019
452.721	1018
452.851	1019
452.981	1024
453.111	1017
453.241	1020
453.371	1014
453.501	1018
453.63	1022
453.76	1016
453.89	1016
454.02	1019
454.15	1010
454.28	1013
454.41	1015
454.539	1029
454.669	1021
454.799	1018
454.929	1016
455.059	1016
455.189	1016
455.318	1015
455.448	1020
455.578	1021
455.708	1017
455.838	1017
455.968	1020
456.097	1027
456.227	1022
456.357	1019
456.487	1017
456.617	1019
456.746	1015
456.876	1022
457.006	1020
457.136	1012
457.265	1020
457.395	1020
457.525	1022
457.655	1015
457.784	1015
457.914	1020
458.044	1020
458.174	1019
458.303	1017
458.433	1017
458.563	1022
458.692	1016
458.822	1025
458.952	1013
459.081	1030
459.211	1016
459.341	1015
459.47	1022
459.6	1024
459.73	1026
459.86	1025
459.989	1020
460.119	1014
460.248	1018
460.378	1021
460.508	1024
460.637	1017
460.767	1014
460.897	1016
461.026	1021
461.156	1011
461.286	1015
461.415	1017
461.545	1015
461.674	1015
461.804	1021
461.933	1025
462.063	1022
462.193	1015
462.322	1012
462.452	1020
462.581	1013
462.711	1017
462.84	1023
462.97	1016
463.1	1025
463.229	1023
463.359	1021
463.488	1022
463.618	1018
463.747	1018
463.877	1019
464.006	1023
464.136	1021
464.265	1018
464.395	1022
464.524	1017
464.654	1017
464.783	1018
464.913	1017
465.042	1020
465.172	1019
465.301	1024
465.431	1025
465.56	1019
465.69	1017
465.819	1020
465.948	1025
466.078	1015
466.207	1016
466.337	1014
466.466	1022
466.596	1022
466.725	1018
466.854	1022
466.984	1016
467.113	1022
467.243	1022
467.372	1025
467.501	1024
467.631	1017
467.76	1019
467.889	1025
468.019	1023
468.148	1018
468.278	1025
468.407	1021
468.536	1018
468.666	1017
468.795	1016
468.924	1024
469.054	1024
469.183	1016
469.312	1018
469.442	1019
469.571	1018
469.7	1021
469.829	1023
469.959	1024
470.088	1025
470.217	1015
470.347	1020
470.476	1022
470.605	1016
470.734	1023
470.864	1019
470.993	1020
471.122	1018
471.251	1017
471.381	1021
471.51	1017
471.639	1018
471.768	1025
471.898	1018
472.027	1027
472.156	1023
472.285	1015
472.414	1015
472.544	1023
472.673	1022
472.802	1020
472.931	1023
473.06	1028
473.189	1024
473.319	1025
473.448	1022
473.577	1022
473.706	1021
473.835	1023
473.964	1020
474.094	1023
474.223	1025
474.352	1023
474.481	1028
474.61	1024
474.739	1021
474.868	1024
474.997	1024
475.126	1027
475.256	1019
475.385	1021
475.514	1032
475.643	1022
475.772	1025
475.901	1019
476.03	1019
476.159	1022
476.288	1021
476.417	1022
476.546	1018
476.675	1020
476.804	1022
476.933	1025
477.062	1022
477.191	1027
477.32	1024
477.449	1024
477.578	1019
477.707	1015
477.836	1022
477.965	1025
478.094	1026
478.223	1024
478.352	1024
478.481	1022
478.61	1020
478.739	1022
478.868	1021
478.997	1030
479.126	1024
479.255	1030
479.384	1024
479.513	1025
479.642	1023
479.771	1019
479.9	1031
480.028	1023
480.157	1027
480.286	1029
480.415	1020
480.544	1031
480.673	1027
480.802	1018
480.931	1016
481.06	1020
481.188	1021
481.317	1019
481.446	1030
481.575	1025
481.704	1028
481.833	1017
481.961	1025
482.09	1016
482.219	1022
482.348	1024
482.477	1025
482.606	1025
482.734	1020
482.863	1022
482.992	1027
483.121	1020
483.249	1028
483.378	1025
483.507	1024
483.636	1025
483.765	1022
483.893	1022
484.022	1015
484.151	1024
484.28	1026
484.408	1029
484.537	1024
484.666	1025
484.794	1029
484.923	1024
485.052	1032
485.181	1024
485.309	1030
485.438	1031
485.567	1029
485.695	1027
485.824	1024
485.953	1030
486.081	1021
486.21	1027
486.339	1021
486.467	1029
486.596	1025
486.725	1024
486.853	1028
486.982	1028
487.11	1024
487.239	1026
487.368	1021
487.496	1029
487.625	1027
487.754	1033
487.882	1025
488.011	1029
488.139	1030
488.268	1024
488.396	1032
488.525	1034
488.654	1031
488.782	1026
488.911	1020
489.039	1032
489.168	1032
489.296	1027
489.425	1029
489.553	1027
489.682	1027
489.81	1028
489.939	1027
490.067	1031
490.196	1028
490.324	1027
490.453	1027
490.581	1027
490.71	1026
490.838	1036
490.967	1020
491.095	1029
491.224	1034
491.352	1025
491.481	1028
491.609	1031
491.738	1028
491.866	1032
491.994	1031
492.123	1025
492.251	1026
492.38	1028
492.508	1025
492.636	1025
492.765	1031
492.893	1027
493.022	1027
493.15	1022
493.278	1026
493.407	1017
493.535	1031
493.663	1026
493.792	1019
493.92	1029
494.049	1026
494.177	1037
494.305	1025
494.434	1030
494.562	1028
494.69	1026
494.818	1026
494.947	1026
495.075	1028
495.203	1030
495.332	1024
495.46	1027
495.588	1036
495.716	1029
495.845	1030
495.973	1021
496.101	1032
496.23	1035
496.358	1031
496.486	1032
496.614	1026
496.742	1024
496.871	1021
496.999	1034
497.127	1024
497.255	1025
497.384	1030
497.512	1032
497.64	1039
497.768	1032
497.896	1023
498.024	1031
498.153	1030
498.281	1038
498.409	1030
498.537	1031
498.665	1026
498.793	1030
498.922	1029
499.05	1026
499.178	1028
499.306	1029
499.434	1028
499.562	1023
499.69	1018
499.818	1030
499.947	1029
500.075	1025
500.203	1032
500.331	1031
500.459	1030
500.587	1029
500.715	1027
500.843	1036
500.971	1029
501.099	1029
501.227	1033
501.355	1032
501.483	1026
501.611	1028
501.739	1029
501.867	1035
501.995	1032
502.123	1031
502.251	1027
502.379	1029
502.507	1030
502.635	1024
502.763	1018
502.891	1031
503.019	1037
503.147	1033
503.275	1028
503.403	1030
503.531	1025
503.659	1028
503.787	1019
503.915	1029
504.043	1036
504.171	1031
504.299	1030
504.426	1030
504.554	1035
504.682	1033
504.81	1032
504.938	1033
505.066	1037
505.194	1033
505.322	1030
505.449	1026
505.577	1030
505.705	1031
505.833	1029
505.961	1033
506.089	1036
506.217	1030
506.344	1033
506.472	1033
506.6	1034
506.728	1039
506.856	1032
506.983	1027
507.111	1032
507.239	1032
507.367	1033
507.495	1031
507.622	1032
507.75	1031
507.878	1033
508.006	1031
508.133	1031
508.261	1027
508.389	1032
508.516	1025
508.644	1027
508.772	1034
508.9	1036
509.027	1033
509.155	1034
509.283	1029
509.41	1028
509.538	1034
509.666	1027
509.793	1029
509.921	1034
510.049	1032
510.176	1029
510.304	1035
510.432	1037
510.559	1026
510.687	1029
510.815	1027
510.942	1033
511.07	1030
511.197	1034
511.325	1032
511.453	1030
511.58	1032
511.708	1031
511.835	1029
511.963	1029
512.091	1039
512.218	1026
512.346	1035
512.473	1031
512.601	1030
512.728	1032
512.856	1033
512.983	1038
513.111	1024
513.238	1031
513.366	1037
513.494	1038
513.621	1022
513.749	1036
513.876	1024
514.003	1031
514.131	1038
514.258	1030
514.386	1035
514.513	1037
514.641	1029
514.768	1036
514.896	1030
515.023	1029
515.151	1031
515.278	1031
515.405	1038
515.533	1028
515.66	1030
515.788	1036
515.915	1038
516.042	1033
516.17	1032
516.297	1030
516.425	1029
516.552	1032
516.679	1041
516.807	1030
516.934	1032
517.061	1030
517.189	1039
517.316	1035
517.443	1030
517.571	1026
517.698	1027
517.825	1028
517.953	1044
518.08	1033
518.207	1030
518.335	1030
518.462	1028
518.589	1039
518.716	1030
518.844	1032
518.971	1031
519.098	1034
519.226	1024
519.353	1031
519.48	1033
519.607	1034
519.734	1036
519.862	1029
519.989	1032
520.116	1031
520.243	1031
520.371	1032
520.498	1032
520.625	1035
520.752	1028
520.879	1036
521.006	1030
521.134	1036
521.261	1033
521.388	1033
521.515	1033
521.642	1033
521.769	1040
521.896	1028
522.024	1034
522.151	1030
522.278	1035
522.405	1036
522.532	1032
522.659	1029
522.786	1034
522.913	1030
523.04	1034
523.167	1031
523.295	1042
523.422	1037
523.549	1033
523.676	1049
523.803	1031
523.93	1022
524.057	1031
524.184	1031
524.311	1036
524.438	1034
524.565	1045
524.692	1030
524.819	1030
524.946	1030
525.073	1034
525.2	1032
525.327	1045
525.454	1032
525.581	1034
525.708	1036
525.835	1028
525.962	1035
526.088	1032
526.215	1034
526.342	1028
526.469	1033
526.596	1033
526.723	1038
526.85	1038
526.977	1036
527.104	1032
527.231	1035
527.358	1047
527.484	1030
527.611	1039
527.738	1037
527.865	1032
527.992	1029
528.119	1038
528.246	1028
528.372	1022
528.499	1032
528.626	1032
528.753	1032
528.88	1042
529.006	1033
529.133	1037
529.26	1040
529.387	1034
529.514	1039
529.64	1043
529.767	1036
529.894	1028
530.021	1035
530.147	1035
530.274	1039
530.401	1036
530.528	1027
530.654	1031
530.781	1033
530.908	1030
531.034	1040
531.161	1030
531.288	1031
531.414	1032
531.541	1038
531.668	1038
531.795	1042
531.921	1033
532.048	1032
532.174	1045
532.301	1038
532.428	1032
532.554	1038
532.681	1034
532.808	1034
532.934	1037
533.061	1028
533.187	1040
533.314	1040
533.441	1036
533.567	1034
533.694	1027
533.82	1029
533.947	1044
534.074	1038
534.2	1033
534.327	1038
534.453	1036
534.58	1030
534.706	1043
534.833	1033
534.959	1037
535.086	1034
535.212	1028
535.339	1033
535.465	1032
535.592	1030
535.718	1030
535.845	1038
535.971	1036
536.098	1043
536.224	1031
536.351	1045
536.477	1029
536.604	1031
536.73	1029
536.856	1039
536.983	1040
537.109	1039
537.236	1029
537.362	1030
537.488	1030
537.615	1034
537.741	1026
537.868	1038
537.994	1039
538.12	1033
538.247	1029
538.373	1034
538.499	1038
538.626	1030
538.752	1038
538.878	1032
539.005	1044
539.131	1032
539.257	1028
539.384	1036
539.51	1041
539.636	1034
539.763	1031
539.889	1036
540.015	1037
540.141	1036
540.268	1035
540.394	1035
540.52	1036
540.646	1034
540.773	1037
540.899	1034
541.025	1030
541.151	1047
541.278	1034
541.404	1025
541.53	1035
541.656	1029
541.782	1037
541.909	1028
542.035	1034
542.161	1030
542.287	1037
542.413	1034
542.539	1045
542.665	1036
542.792	1040
542.918	1034
543.044	1036
543.17	1036
543.296	1032
543.422	1033
543.548	1038
543.674	1029
543.801	1043
543.927	1035
544.053	1036
544.179	1034
544.305	1030
544.431	1027
544.557	1037
544.683	1039
544.809	1029
544.935	1040
545.061	1028
545.187	1036
545.313	1031
545.439	1036
545.565	1030
545.691	1031
545.817	1028
545.943	1034
546.069	1030
546.195	1031
546.321	1035
546.447	1033
546.573	1038
546.699	1040
546.825	1041
546.951	1038
547.077	1033
547.203	1043
547.329	1038
547.454	1029
547.58	1039
547.706	1032
547.832	1039
547.958	1035
548.084	1039
548.21	1037
548.336	1042
548.462	1040
548.587	1034
548.713	1032
548.839	1036
548.965	1043
549.091	1043
549.217	1038
549.342	1036
549.468	1032
549.594	1032
549.72	1038
549.846	1041
549.971	1036
550.097	1039
550.223	1040
550.349	1036
550.474	1032
550.6	1032
550.726	1034
550.852	1035
550.977	1035
551.103	1034
551.229	1027
551.355	1037
551.48	1037
551.606	1033
551.732	1035
551.857	1029
551.983	1037
552.109	1029
552.234	1034
552.36	1031
552.486	1024
552.611	1042
552.737	1040
552.863	1032
552.988	1038
553.114	1038
553.24	1036
553.365	1031
553.491	1046
553.616	1034
553.742	1036
553.868	1041
553.993	1031
554.119	1037
554.244	1035
554.37	1040
554.495	1031
554.621	1031
554.746	1043
554.872	1040
554.998	1028
555.123	1033
555.249	1039
555.374	1044
555.5	1031
555.625	1041
555.751	1032
555.876	1041
556.002	1030
556.127	1033
556.252	1032
556.378	1038
556.503	1037
556.629	1027
556.754	1032
556.88	1035
557.005	1036
557.131	1027
557.256	1039
557.381	1037
557.507	1041
557.632	1036
557.758	1035
557.883	1037
558.008	1035
558.134	1043
558.259	1039
558.384	1034
558.51	1035
558.635	1036
558.76	1034
558.886	1030
559.011	1031
559.136	1034
559.262	1042
559.387	1028
559.512	1032
559.638	1034
559.763	1033
559.888	1036
560.013	1041
560.139	1038
560.264	1038
560.389	1043
560.514	1037
560.64	1031
560.765	1030
560.89	1036
561.015	1039
561.141	1037
561.266	1047
561.391	1031
561.516	1039
561.641	1040
561.767	1038
561.892	1042
562.017	1044
562.142	1033
562.267	1037
562.392	1042
562.518	1029
562.643	1034
562.768	1041
562.893	1033
563.018	1033
563.143	1035
563.268	1039
563.393	1033
563.518	1037
563.644	1036
563.769	1031
563.894	1041
564.019	1031
564.144	1027
564.269	1037
564.394	1030
564.519	1044
564.644	1037
564.769	1032
564.894	1034
565.019	1033
565.144	1037
565.269	1037
565.394	1026
565.519	1039
565.644	1032
565.769	1038
565.894	1040
566.019	1034
566.144	1038
566.269	1038
566.394	1040
566.519	1039
566.644	1039
566.769	1029
566.893	1027
567.018	1038
567.143	1033
567.268	1034
567.393	1040
567.518	1039
567.643	1033
567.768	1042
567.893	1044
568.017	1038
568.142	1038
568.267	1038
568.392	1038
568.517	1037
568.642	1033
568.766	1033
568.891	1042
569.016	1043
569.141	1030
569.266	1037
569.39	1034
569.515	1029
569.64	1038
569.765	1033
569.889	1039
570.014	1040
570.139	1039
570.264	1038
570.388	1027
570.513	1033
570.638	1047
570.762	1037
570.887	1039
571.012	1043
571.137	1040
571.261	1040
571.386	1035
571.511	1040
571.635	1033
571.76	1031
571.885	1045
572.009	1039
572.134	1040
572.258	1026
572.383	1031
572.508	1035
572.632	1031
572.757	1040
572.881	1041
573.006	1041
573.131	1034
573.255	1037
573.38	1039
573.504	1036
573.629	1036
573.753	1034
573.878	1042
574.003	1040
574.127	1036
574.252	1039
574.376	1029
574.501	1031
574.625	1028
574.75	1035
574.874	1033
574.999	1042
575.123	1026
575.248	1039
575.372	1032
575.496	1036
575.621	1041
575.745	1039
575.87	1044
575.994	1042
576.119	1032
576.243	1036
576.367	1033
576.492	1036
576.616	1034
576.741	1036
576.865	1041
576.989	1034
577.114	1037
577.238	1040
577.362	1032
577.487	1037
577.611	1035
577.735	1037
577.86	1035
577.984	1037
578.108	1041
578.233	1031
578.357	1040
578.481	1043
578.606	1046
578.73	1032
578.854	1037
578.978	1045
578.977	1021
579.106	1029
579.234	1024
579.362	1032
579.491	1031
579.619	1032
579.747	1025
579.875	1030
580.004	1034
580.132	1025
580.26	1034
580.388	1030
580.517	1032
580.645	1038
580.773	1029
580.901	1036
581.03	1037
581.158	1037
581.286	1026
581.414	1031
581.542	1024
581.671	1027
581.799	1032
581.927	1033
582.055	1034
582.183	1034
582.312	1030
582.44	1033
582.568	1022
582.696	1032
582.824	1035
582.952	1034
583.08	1028
583.209	1036
583.337	1032
583.465	1041
583.593	1040
583.721	1039
583.849	1037
583.977	1031
584.105	1037
584.233	1035
584.362	1029
584.49	1032
584.618	1035
584.746	1032
584.874	1030
585.002	1030
585.13	1040
585.258	1036
585.386	1044
585.514	1042
585.642	1029
585.77	1038
585.898	1042
586.026	1039
586.154	1039
586.282	1048
586.41	1039
586.538	1043
586.666	1040
586.794	1042
586.922	1039
587.05	1042
587.178	1035
587.306	1037
587.434	1036
587.562	1048
587.69	1042
587.818	1047
587.946	1039
588.074	1042
588.202	1043
588.33	1038
588.458	1047
588.586	1045
588.714	1050
588.842	1047
588.97	1040
589.097	1035
589.225	1042
589.353	1044
589.481	1043
589.609	1046
589.737	1049
589.865	1050
589.993	1038
590.121	1064
590.248	1038
590.376	1039
590.504	1048
590.632	1042
590.76	1055
590.888	1048
591.015	1052
591.143	1048
591.271	1041
591.399	1039
591.527	1051
591.655	1048
591.782	1049
591.91	1049
592.038	1047
592.166	1043
592.294	1057
592.421	1057
592.549	1051
592.677	1043
592.805	1043
592.932	1053
593.06	1052
593.188	1044
593.316	1053
593.443	1044
593.571	1045
593.699	1046
593.826	1056
593.954	1053
594.082	1050
594.21	1056
594.337	1061
594.465	1054
594.593	1056
594.72	1058
594.848	1049
594.976	1054
595.103	1050
595.231	1060
595.359	1067
595.486	1054
595.614	1062
595.742	1079
595.869	1049
595.997	1070
596.124	1054
596.252	1046
596.38	1054
596.507	1061
596.635	1057
596.763	1065
596.89	1073
597.018	1057
597.145	1065
597.273	1060
597.4	1067
597.528	1058
597.656	1069
597.783	1076
597.911	1067
598.038	1073
598.166	1072
598.293	1077
598.421	1079
598.548	1058
598.676	1070
598.803	1070
598.931	1077
599.058	1072
599.186	1063
599.313	1055
599.441	1072
599.568	1073
599.696	1068
599.823	1068
599.951	1073
600.078	1083
600.206	1067
600.333	1071
600.461	1076
600.588	1084
600.715	1071
600.843	1066
600.97	1085
601.098	1080
601.225	1083
601.353	1081
601.48	1065
601.607	1075
601.735	1084
601.862	1083
601.99	1072
602.117	1073
602.244	1084
602.372	1078
602.499	1095
602.626	1088
602.754	1089
602.881	1081
603.008	1097
603.136	1096
603.263	1080
603.39	1080
603.518	1078
603.645	1090
603.772	1086
603.9	1084
604.027	1092
604.154	1093
604.281	1095
604.409	1097
604.536	1083
604.663	1098
604.791	1098
604.918	1114
605.045	1088
605.172	1097
605.3	1086
605.427	1095
605.554	1091
605.681	1098
605.809	1095
605.936	1095
606.063	1100
606.19	1103
606.317	1093
606.445	1097
606.572	1092
606.699	1101
606.826	1093
606.953	1108
607.08	1107
607.208	1102
607.335	1104
607.462	1104
607.589	1096
607.716	1114
607.843	1107
607.97	1108
608.098	1115
608.225	1114
608.352	1115
608.479	1106
608.606	1113
608.733	1114
608.86	1114
608.987	1120
609.114	1123
609.241	1111
609.369	1121
609.496	1114
609.623	1124
609.75	1115
609.877	1124
610.004	1126
610.131	1109
610.258	1105
610.385	1116
610.512	1127
610.639	1122
610.766	1112
610.893	1127
611.02	1133
611.147	1130
611.274	1133
611.401	1136
611.528	1134
611.655	1133
611.782	1140
611.909	1155
612.036	1144
612.163	1145
612.29	1127
612.417	1127
612.543	1151
612.67	1131
612.797	1132
612.924	1145
613.051	1140
613.178	1144
613.305	1134
613.432	1132
613.559	1143
613.686	1133
613.813	1134
613.939	1146
614.066	1146
614.193	1151
614.32	1147
614.447	1146
614.574	1151
614.701	1155
614.827	1162
614.954	1161
615.081	1144
615.208	1159
615.335	1152
615.461	1150
615.588	1158
615.715	1149
615.842	1171
615.969	1165
616.095	1172
616.222	1155
616.349	1149
616.476	1173
616.602	1158
616.729	1168
616.856	1160
616.983	1160
617.109	1175
617.236	1152
617.363	1176
617.49	1173
617.616	1161
617.743	1178
617.87	1153
617.996	1173
618.123	1179
618.25	1169
618.376	1180
618.503	1192
618.63	1188
618.756	1165
618.883	1185
619.01	1191
619.136	1184
619.263	1177
619.39	1177
619.516	1205
619.643	1187
619.769	1205
619.896	1190
620.023	1193
620.149	1182
620.276	1202
620.402	1198
620.529	1201
620.656	1206
620.782	1200
620.909	1212
621.035	1208
621.162	1204
621.288	1206
621.415	1208
621.541	1215
621.668	1213
621.795	1202
621.921	1217
622.048	1225
622.174	1214
622.301	1214
622.427	1200
622.554	1216
622.68	1211
622.807	1196
622.933	1237
623.059	1233
623.186	1227
623.312	1222
623.439	1235
623.565	1231
623.692	1235
623.818	1238
623.945	1246
624.071	1239
624.197	1237
624.324	1241
624.45	1231
624.577	1245
624.703	1261
624.829	1239
624.956	1237
625.082	1242
625.209	1240
625.335	1249
625.461	1253
625.588	1260
625.714	1252
625.84	1256
625.967	1252
626.093	1286
626.219	1265
626.346	1262
626.472	1253
626.598	1264
626.725	1253
626.851	1271
626.977	1263
627.103	1290
627.23	1253
627.356	1255
627.482	1273
627.608	1290
627.735	1280
627.861	1298
627.987	1275
628.113	1272
628.24	1300
628.366	1295
628.492	1292
628.618	1297
628.745	1292
628.871	1297
628.997	1308
629.123	1296
629.249	1334
629.376	1293
629.502	1300
629.628	1316
629.754	1312
629.88	1307
630.006	1341
630.132	1316
630.259	1312
630.385	1323
630.511	1317
630.637	1313
630.763	1325
630.889	1354
631.015	1352
631.141	1331
631.268	1333
631.394	1325
631.52	1331
631.646	1357
631.772	1373
631.898	1361
632.024	1356
632.15	1350
632.276	1360
632.402	1363
632.528	1370
632.654	1354
632.78	1375
632.906	1384
633.032	1359
633.158	1400
633.284	1377
633.41	1396
633.536	1397
633.662	1373
633.788	1411
633.914	1398
634.04	1393
634.166	1394
634.292	1409
634.418	1405
634.544	1402
634.67	1409
634.796	1399
634.922	1417
635.048	1438
635.173	1436
635.299	1452
635.425	1434
635.551	1445
635.677	1431
635.803	1466
635.929	1440
636.055	1429
636.181	1418
636.306	1445
636.432	1431
636.558	1466
636.684	1482
636.81	1450
636.936	1457
637.061	1468
637.187	1469
637.313	1453
637.439	1457
637.565	1479
637.69	1465
637.816	1480
637.942	1487
638.068	1516
638.193	1463
638.319	1498
638.445	1480
638.571	1507
638.696	1514
638.822	1491
638.948	1526
639.074	1485
639.199	1528
639.325	1513
639.451	1542
639.577	1530
639.702	1521
639.828	1579
639.954	1534
640.079	1511
640.205	1536
640.331	1557
640.456	1573
640.582	1558
640.708	1546
640.833	1553
640.959	1600
641.084	1584
641.21	1590
641.336	1612
641.461	1622
641.587	1601
641.712	1600
641.838	1609
641.964	1604
642.089	1629
642.215	1615
642.34	1640
642.466	1650
642.592	1664
642.717	1605
642.843	1688
642.968	1673
643.094	1661
643.219	1699
643.345	1696
643.47	1672
643.596	1695
643.721	1734
643.847	1715
643.972	1728
644.098	1718
644.223	1710
644.349	1753
644.474	1725
644.6	1743
644.725	1771
644.85	1773
644.976	1821
645.101	1812
645.227	1795
645.352	1795
645.478	1809
645.603	1813
645.728	1802
645.854	1813
645.979	1809
646.105	1812
646.23	1854
646.355	1829
646.481	1840
646.606	1827
646.731	1857
646.857	1860
646.982	1874
647.107	1893
647.233	1871
647.358	1922
647.483	1918
647.609	1903
647.734	1936
647.859	1949
647.985	1915
648.11	1932
648.235	1967
648.36	1966
648.486	1982
648.611	2003
648.736	2007
648.862	2003
648.987	2053
649.112	2013
649.237	2070
649.362	2033
649.488	2108
649.613	2105
649.738	2117
649.863	2118
649.988	2120
650.114	2142
650.239	2210
650.364	2153
650.489	2216
650.614	2206
650.74	2230
650.865	2242
650.99	2232
651.115	2276
651.24	2288
651.365	2330
651.49	2292
651.615	2292
651.741	2315
651.866	2323
651.991	2331
652.116	2366
652.241	2385
652.366	2402
652.491	2445
652.616	2402
652.741	2445
652.866	2449
652.991	2401
653.116	2420
653.241	2423
653.366	2442
653.491	2477
653.616	2494
653.741	2476
653.866	2423
653.991	2421
654.116	2469
654.241	2485
654.366	2480
654.491	2534
654.616	2529
654.741	2545
654.866	2565
654.991	2583
655.116	2580
655.241	2619
655.366	2642
655.491	2649
655.616	2684
655.741	2730
655.866	2737
655.99	2781
656.115	2844
656.24	2791
656.365	2901
656.49	2912
656.615	2991
656.74	2927
656.865	2998
656.989	2988
657.114	3053
657.239	3070
657.364	3116
657.489	3093
657.614	3169
657.738	3106
657.863	3188
657.988	3125
658.113	3179
658.238	3183
658.362	3197
658.487	3266
658.612	3222
658.737	3246
658.861	3301
658.986	3356
659.111	3376
659.236	3364
659.36	3349
659.485	3465
659.61	3505
659.734	3476
659.859	3526
659.984	3644
660.108	3619
660.233	3658
660.358	3727
660.482	3785
660.607	3810
660.732	3882
660.856	3891
660.981	3987
661.106	4021
661.23	4103
661.355	4148
661.48	4130
661.604	4219
661.729	4210
661.853	4297
661.978	4304
662.103	4367
662.227	4394
662.352	4390
662.476	4422
662.601	4470
662.725	4497
662.85	4494
662.974	4557
663.099	4569
663.224	4588
663.348	4610
663.473	4767
663.597	4618
663.722	4731
663.846	4754
663.971	4789
664.095	4775
664.219	4831
664.344	4889
664.468	4885
664.593	4966
664.717	4979
664.842	5061
664.966	5084
665.091	5061
665.215	5130
665.339	5071
665.464	5226
665.588	5232
665.713	5222
665.837	5295
665.961	5345
666.086	5333
666.21	5254
666.335	5441
666.459	5435
666.583	5382
666.708	5531
666.832	5488
666.956	5461
667.081	5532
667.205	5521
667.329	5509
667.454	5561
667.578	5550
667.702	5555
667.826	5546
667.951	5558
668.075	5610
668.199	5625
668.324	5570
668.448	5660
668.572	5640
668.696	5563
668.82	5655
668.945	5700
669.069	5621
669.193	5718
669.317	5732
669.442	5768
669.566	5817
669.69	5769
669.814	5850
669.938	5855
670.062	6030
670.187	5996
670.311	6023
670.435	6128
670.559	6177
670.683	6338
670.807	6346
670.931	6457
671.056	6559
671.18	6700
671.304	6697
671.428	6815
671.552	6912
671.676	6985
671.8	7012
671.924	7131
672.048	7209
672.172	7286
672.296	7418
672.42	7395
672.544	7524
672.669	7568
672.793	7713
672.917	7866
673.041	7760
673.165	7944
673.289	8107
673.413	8156
673.537	8327
673.661	8367
673.785	8463
673.908	8584
674.032	8710
674.156	8891
674.28	9023
674.404	9048
674.528	9119
674.652	9256
674.776	9405
674.9	9443
675.024	9478
675.148	9520
675.272	9676
675.396	9713
675.519	9608
675.643	9727
675.767	9832
675.891	9734
676.015	9588
676.139	9560
676.263	9637
676.386	9633
676.51	9620
676.634	9529
676.758	9442
676.882	9292
677.005	9370
677.129	9326
677.253	9225
677.377	9157
677.501	9098
677.624	8961
677.748	9015
677.872	8828
677.996	8837
678.119	8632
678.243	8722
678.367	8578
678.491	8466
678.614	8449
678.738	8238
678.862	8314
678.985	8271
679.109	8156
679.233	8039
679.356	8049
679.48	8020
679.604	7921
679.727	7843
679.851	7742
679.975	7709
680.098	7701
680.222	7561
680.346	7525
680.469	7464
680.593	7362
680.716	7343
680.84	7210
680.963	7298
681.087	7342
681.211	7242
681.334	7207
681.458	7176
681.581	7129
681.705	7221
681.828	7102
681.952	7083
682.075	7154
682.199	7141
682.322	7196
682.446	7210
682.569	7215
682.693	7216
682.816	7393
682.94	7658
683.063	7715
683.187	7964
683.31	8246
683.434	8669
683.557	9272
683.681	9775
683.804	10492
683.928	11208
684.051	12304
684.174	13454
684.298	14721
684.421	15984
684.545	17682
684.668	19096
684.791	20323
684.915	21776
685.038	23129
685.161	24602
685.285	25539
685.408	26708
685.531	27972
685.655	28891
685.778	29875
685.901	30898
686.025	31827
686.148	32773
686.271	33632
686.395	34645
686.518	35574
686.641	36502
686.764	37329
686.888	37982
687.011	38498
687.134	39231
687.257	39692
687.381	39965
687.504	40371
687.627	40240
687.75	40482
687.873	40604
687.997	40495
688.12	40292
688.243	39991
688.366	40101
688.489	39572
688.613	39090
688.736	38854
688.859	38290
688.982	37927
689.105	37131
689.228	36368
689.351	36019
689.475	35159
689.598	34749
689.721	33980
689.844	33358
689.967	32497
690.09	31695
690.213	31065
690.336	30385
690.459	29604
690.582	28932
690.705	28543
690.828	27839
690.951	27392
691.074	26921
691.197	26236
691.32	25810
691.443	25691
691.566	25347
691.689	24832
691.812	24562
691.935	24421
692.058	24294
692.181	23991
692.304	23842
692.427	23768
692.55	23312
692.673	23129
692.796	22873
692.919	22859
693.042	22703
693.165	22458
693.288	22232
693.411	22370
693.533	21981
693.656	21974
693.779	21750
693.902	21466
694.025	21362
694.148	21289
694.271	21073
694.393	20976
694.516	20868
694.639	20624
694.762	20447
694.885	20544
695.008	20592
695.13	20419
695.253	20538
695.376	20391
695.499	20250
695.622	20361
695.744	20454
695.867	20196
695.99	20331
696.113	20025
696.235	20290
696.358	20214
696.481	20340
696.603	20368
696.726	20385
696.849	20628
696.972	20622
697.094	20626
697.217	20696
697.34	20529
697.462	20530
697.585	20595
697.708	20399
697.83	20482
697.953	20464
698.075	20448
698.198	20321
698.321	20280
698.443	20201
698.566	20020
698.688	19943
698.811	20033
698.934	19958
699.056	19665
699.179	19588
699.301	19523
699.424	19440
699.546	19454
699.669	19188
699.792	19066
699.914	18900
700.037	18736
700.159	18692
700.282	18523
700.404	18266
700.527	18090
700.649	18044
700.772	17790
700.894	17625
701.016	17594
701.139	17138
701.261	17338
701.384	17011
701.506	16964
701.629	16704
701.751	16672
701.873	16445
701.996	16495
702.118	16322
702.241	16133
702.363	16224
702.485	16156
702.608	15971
702.73	15976
702.853	16051
702.975	15913
703.097	16044
703.22	16151
703.342	16044
703.464	15996
703.587	16261
703.709	16135
703.831	16177
703.953	16450
704.076	16434
704.198	16485
704.32	16638
704.442	16762
704.565	16817
704.687	16897
704.809	16977
704.931	17144
705.054	17030
705.176	17195
705.298	17334
705.42	17383
705.543	17512
705.665	17631
705.787	17966
705.909	17812
706.031	18076
706.025	20947
706.151	21108
706.278	21060
706.404	21033
706.531	21142
706.657	21128
706.783	21259
706.91	21267
707.036	21320
707.162	21182
707.289	20916
707.415	21045
707.541	20972
707.668	20995
707.794	20750
707.92	20773
708.047	20583
708.173	20695
708.299	20514
708.426	20633
708.552	20411
708.678	20346
708.805	20134
708.931	19896
709.057	19893
709.183	19797
709.31	19578
709.436	19611
709.562	19361
709.688	19136
709.815	18758
709.941	18799
710.067	18640
710.193	18394
710.32	18217
710.446	18140
710.572	17893
710.698	17889
710.824	17779
710.951	17500
711.077	17476
711.203	17412
711.329	17220
711.455	17032
711.581	17083
711.708	16992
711.834	16762
711.96	16785
712.086	16640
712.212	16481
712.338	16549
712.464	16366
712.591	16460
712.717	16488
712.843	16224
712.969	16219
713.095	16259
713.221	16218
713.347	16135
713.473	16131
713.599	16276
713.725	16100
713.852	16201
713.978	16102
714.104	16264
714.23	16215
714.356	16243
714.482	16295
714.608	16468
714.734	16508
714.86	16711
714.986	16669
715.112	16836
715.238	17002
715.364	17070
715.49	17076
715.616	17211
715.742	17426
715.868	17537
715.994	17475
716.12	17658
716.246	17717
716.372	17630
716.498	17758
716.624	17780
716.75	17554
716.876	17252
717.002	17275
717.127	17342
717.253	17160
717.379	16806
717.505	16724
717.631	16445
717.757	16306
717.883	16007
718.009	15847
718.135	15454
718.261	15345
718.386	15102
718.512	14895
718.638	14531
718.764	14262
718.89	14078
719.016	13918
719.142	13731
719.267	13452
719.393	13386
719.519	13212
719.645	13194
719.771	12932
719.896	12777
720.022	12596
720.148	12565
720.274	12463
720.4	12200
720.525	12118
720.651	12145
720.777	12077
720.903	12133
721.029	11926
721.154	11932
721.28	11865
721.406	11771
721.531	11642
721.657	11561
721.783	11535
721.909	11475
722.034	11515
722.16	11392
722.286	11375
722.411	11321
722.537	11022
722.663	11088
722.789	10895
722.914	10797
723.04	10737
723.166	10562
723.291	10442
723.417	10369
723.542	10277
723.668	10120
723.794	10126
723.919	9969
724.045	9791
724.171	9701
724.296	9594
724.422	9485
724.547	9378
724.673	9337
724.799	9258
724.924	9227
725.05	9025
725.175	9125
725.301	8990
725.426	8938
725.552	8717
725.678	8816
725.803	8573
725.929	8469
726.054	8531
726.18	8466
726.305	8402
726.431	8335
726.556	8286
726.682	8112
726.807	8068
726.933	8050
727.058	8044
727.184	8000
727.309	7934
727.435	7923
727.56	7823
727.686	7788
727.811	7756
727.937	7777
728.062	7528
728.187	7622
728.313	7489
728.438	7497
728.564	7460
728.689	7356
728.815	7486
728.94	7372
729.065	7291
729.191	7238
729.316	7257
729.441	7204
729.567	7244
729.692	7042
729.818	7134
729.943	7026
730.068	7071
730.194	6949
730.319	7045
730.444	6923
730.57	6979
730.695	6956
730.82	6798
730.946	6825
731.071	6752
731.196	6783
731.321	6787
731.447	6698
731.572	6779
731.697	6706
731.823	6697
731.948	6660
732.073	6603
732.198	6441
732.324	6616
732.449	6558
732.574	6476
732.699	6421
732.825	6523
732.95	6474
733.075	6329
733.2	6331
733.325	6311
733.451	6250
733.576	6325
733.701	6203
733.826	6269
733.951	6232
734.077	6284
734.202	6114
734.327	6099
734.452	6135
734.577	6096
734.702	6102
734.827	6108
734.953	6041
735.078	6004
735.203	5968
735.328	6022
735.453	6040
735.578	5967
735.703	5911
735.828	5984
735.953	5995
736.078	5879
736.203	5918
736.329	5835
736.454	5854
736.579	5910
736.704	5814
736.829	5798
736.954	5768
737.079	5798
737.204	5711
737.329	5729
737.454	5718
737.579	5735
737.704	5731
737.829	5658
737.954	5687
738.079	5641
738.204	5633
738.329	5621
738.454	5699
738.579	5628
738.704	5577
738.829	5576
738.953	5596
739.078	5540
739.203	5656
739.328	5573
739.453	5507
739.578	5451
739.703	5455
739.828	5458
739.953	5476
740.078	5368
740.203	5360
740.327	5447
740.452	5376
740.577	5361
740.702	5306
740.827	5323
740.952	5394
741.077	5339
741.201	5312
741.326	5204
741.451	5313
741.576	5238
741.701	5292
741.825	5229
741.95	5236
742.075	5128
742.2	5119
742.325	5162
742.449	5163
742.574	5103
742.699	4998
742.824	5075
742.948	5065
743.073	4978
743.198	5018
743.323	5040
743.447	4980
743.572	4957
743.697	4893
743.821	4879
743.946	4893
744.071	4943
744.196	4947
744.32	4862
744.445	4858
744.57	4824
744.694	4827
744.819	4844
744.944	4897
745.068	4807
745.193	4745
745.318	4764
745.442	4770
745.567	4774
745.691	4716
745.816	4673
745.941	4644
746.065	4729
746.19	4622
746.314	4629
746.439	4604
746.564	4640
746.688	4616
746.813	4565
746.937	4576
747.062	4494
747.186	4498
747.311	4510
747.435	4556
747.56	4479
747.684	4499
747.809	4492
747.933	4409
748.058	4449
748.182	4404
748.307	4440
748.431	4418
748.556	4342
748.68	4363
748.805	4387
748.929	4289
749.054	4304
749.178	4274
749.303	4321
749.427	4267
749.552	4277
749.676	4210
749.8	4251
749.925	4247
750.049	4130
750.174	4264
750.298	4175
750.422	4182
750.547	4132
750.671	4174
750.796	4160
750.92	4084
751.044	4147
751.169	4082
751.293	4130
751.417	4166
751.542	4035
751.666	4116
751.79	4057
751.915	4040
752.039	4028
752.163	3993
752.287	3984
752.412	4008
752.536	3923
752.66	3985
752.785	3951
752.909	3979
753.033	3950
753.157	3918
753.282	3884
753.406	3884
753.53	3857
753.654	3940
753.779	3853
753.903	3819
754.027	3836
754.151	3823
754.275	3840
754.4	3838
754.524	3800
754.648	3773
754.772	3745
754.896	3766
755.02	3725
755.145	3720
755.269	3750
755.393	3718
755.517	3752
755.641	3720
755.765	3685
755.889	3686
756.013	3685
756.138	3690
756.262	3641
756.386	3641
756.51	3702
756.634	3586
756.758	3617
756.882	3584
757.006	3543
757.13	3643
757.254	3536
757.378	3555
757.502	3540
757.626	3592
757.75	3578
757.874	3536
757.998	3480
758.122	3514
758.246	3450
758.37	3452
758.494	3517
758.618	3509
758.742	3477
758.866	3506
758.99	3438
759.114	3482
759.238	3440
759.362	3433
759.486	3472
759.61	3379
759.734	3379
759.858	3476
759.982	3376
760.106	3416
760.23	3349
760.353	3368
760.477	3348
760.601	3312
760.725	3369
760.849	3273
760.973	3267
761.097	3376
761.221	3338
761.344	3304
761.468	3250
761.592	3284
761.716	3220
761.84	3239
761.963	3281
762.087	3245
762.211	3221
762.335	3281
762.459	3237
762.582	3265
762.706	3240
762.83	3149
762.954	3206
763.078	3230
763.201	3180
763.325	3160
763.449	3181
763.572	3179
763.696	3123
763.82	3077
763.944	3093
764.067	3197
764.191	3076
764.315	3183
764.438	3172
764.562	3116
764.686	3042
764.809	3085
764.933	3122
765.057	3063
765.18	3072
765.304	3052
765.428	3077
765.551	3016
765.675	3032
765.798	3033
765.922	3038
766.046	2984
766.169	3014
766.293	3013
766.416	2984
766.54	2992
766.664	2920
766.787	2960
766.911	3013
767.034	2979
767.158	2976
767.281	2940
767.405	2941
767.528	2963
767.652	2937
767.775	2937
767.899	2922
768.022	2852
768.146	2886
768.269	2888
768.393	2879
768.516	2882
768.64	2957
768.763	2851
768.887	2851
769.01	2890
769.134	2812
769.257	2828
769.381	2880
769.504	2816
769.627	2820
769.751	2810
769.874	2843
769.998	2834
770.121	2807
770.244	2804
770.368	2766
770.491	2770
770.614	2758
770.738	2730
770.861	2728
770.985	2768
771.108	2724
771.231	2738
771.355	2739
771.478	2739
771.601	2762
771.724	2754
771.848	2718
771.971	2711
772.094	2667
772.218	2664
772.341	2688
772.464	2703
772.587	2673
772.711	2636
772.834	2635
772.957	2621
773.08	2652
773.204	2623
773.327	2642
773.45	2694
773.573	2606
773.696	2630
773.82	2648
773.943	2590
774.066	2616
774.189	2646
774.312	2583
774.436	2557
774.559	2588
774.682	2588
774.805	2540
774.928	2587
775.051	2587
775.174	2576
775.297	2521
775.421	2547
775.544	2563
775.667	2527
775.79	2522
775.913	2539
776.036	2532
776.159	2485
776.282	2493
776.405	2486
776.528	2465
776.651	2486
776.774	2514
776.897	2448
777.02	2453
777.143	2473
777.266	2408
777.389	2467
777.512	2468
777.635	2429
777.758	2428
777.881	2445
778.004	2425
778.127	2381
778.25	2435
778.373	2405
778.496	2438
778.619	2419
778.742	2372
778.865	2406
778.988	2389
779.111	2407
779.234	2389
779.357	2378
779.48	2378
779.602	2376
779.725	2367
779.848	2370
779.971	2346
780.094	2357
780.217	2310
780.34	2316
780.462	2339
780.585	2352
780.708	2332
780.831	2289
780.954	2318
781.077	2374
781.199	2307
781.322	2355
781.445	2302
781.568	2313
781.691	2306
781.813	2315
781.936	2291
782.059	2257
782.182	2303
782.304	2270
782.427	2247
782.55	2269
782.672	2268
782.795	2248
782.918	2266
783.041	2221
783.163	2241
783.286	2271
783.409	2281
783.531	2208
783.654	2212
783.777	2220
783.899	2212
784.022	2224
784.145	2198
784.267	2209
784.39	2174
784.512	2231
784.635	2190
784.758	2203
784.88	2224
785.003	2185
785.125	2164
785.248	2211
785.371	2184
785.493	2133
785.616	2174
785.738	2152
785.861	2156
785.983	2094
786.106	2142
786.228	2206
786.351	2137
786.473	2146
786.596	2126
786.718	2117
786.841	2144
786.963	2119
787.086	2113
787.208	2089
787.331	2121
787.453	2101
787.576	2106
787.698	2092
787.821	2108
787.943	2093
788.066	2098
788.188	2082
788.31	2082
788.433	2114
788.555	2120
788.678	2097
788.8	2056
788.922	2058
789.045	2079
789.167	2101
789.289	2102
789.412	2059
789.534	2051
789.656	2040
789.779	2015
789.901	2032
790.023	2036
790.146	2041
790.268	2026
790.39	2037
790.513	2030
790.635	2033
790.757	2048
790.879	2035
791.002	2053
791.124	2058
791.246	2018
791.368	1998
791.491	2013
791.613	1990
791.735	2031
791.857	2021
791.98	1982
792.102	2001
792.224	1979
792.346	2035
792.468	2024
792.59	1988
792.713	2038
792.835	1976
792.957	2002
793.079	1967
793.201	1905
793.323	1941
793.446	2010
793.568	2025
793.69	1977
793.812	1991
793.934	1951
794.056	1987
794.178	1982
794.3	1997
794.422	1926
794.544	1969
794.666	1924
794.788	1977
794.91	1961
795.033	1941
795.155	1950
795.277	1913
795.399	1938
795.521	1904
795.643	1943
795.765	1905
795.887	1933
796.009	1964
796.131	1949
796.253	1884
796.374	1898
796.496	1939
796.618	1899
796.74	1931
796.862	1912
796.984	1882
797.106	1885
797.228	1940
797.35	1910
797.472	1916
797.594	1892
797.716	1895
797.837	1907
797.959	1884
798.081	1872
798.203	1880
798.325	1883
798.447	1897
798.569	1865
798.69	1924
798.812	1882
798.934	1868
799.056	1891
799.178	1864
799.299	1871
799.421	1858
799.543	1871
799.665	1889
799.787	1858
799.908	1856
800.03	1868
800.152	1844
800.274	1850
800.395	1867
800.517	1846
800.639	1827
800.76	1867
800.882	1854
801.004	1833
801.126	1831
801.247	1876
801.369	1872
801.491	1854
801.612	1840
801.734	1866
801.856	1841
801.977	1838
802.099	1820
802.22	1801
802.342	1861
802.464	1826
802.585	1847
802.707	1818
802.828	1829
802.95	1805
803.072	1837
803.193	1821
803.315	1839
803.436	1811
803.558	1811
803.679	1811
803.801	1832
803.922	1822
804.044	1781
804.165	1780
804.287	1776
804.408	1800
804.53	1818
804.651	1810
804.773	1810
804.894	1801
805.016	1813
805.137	1794
805.259	1778
805.38	1771
805.502	1786
805.623	1788
805.745	1771
805.866	1769
805.987	1804
806.109	1792
806.23	1782
806.352	1777
806.473	1754
806.594	1790
806.716	1764
806.837	1779
806.958	1766
807.08	1777
807.201	1739
807.322	1761
807.444	1760
807.565	1731
807.686	1733
807.808	1746
807.929	1746
808.05	1748
808.171	1753
808.293	1742
808.414	1779
808.535	1723
808.657	1715
808.778	1739
808.899	1715
809.02	1753
809.141	1725
809.263	1723
809.384	1723
809.505	1718
809.626	1726
809.747	1722
809.869	1742
809.99	1733
810.111	1707
810.232	1683
810.353	1709
810.474	1701
810.596	1755
810.717	1697
810.838	1705
810.959	1702
811.08	1706
811.201	1743
811.322	1723
811.443	1702
811.564	1711
811.686	1699
811.807	1711
811.928	1695
812.049	1703
812.17	1686
812.291	1680
812.412	1724
812.533	1730
812.654	1644
812.775	1684
812.896	1713
813.017	1699
813.138	1676
813.259	1681
813.38	1704
813.501	1718
813.622	1686
813.743	1683
813.864	1661
813.985	1669
814.105	1684
814.226	1678
814.347	1682
814.468	1676
814.589	1650
814.71	1664
814.831	1673
814.952	1654
815.073	1671
815.194	1680
815.314	1717
815.435	1655
815.556	1616
815.677	1643
815.798	1650
815.919	1666
816.039	1678
816.16	1665
816.281	1639
816.402	1662
816.523	1647
816.643	1645
816.764	1670
816.885	1620
817.006	1629
817.126	1634
817.247	1625
817.368	1629
817.489	1642
817.609	1623
817.73	1610
817.851	1637
817.971	1654
818.092	1664
818.213	1636
818.333	1657
818.454	1635
818.575	1610
818.695	1641
818.816	1607
818.937	1648
819.057	1633
819.178	1619
819.299	1588
819.419	1622
819.54	1618
819.66	1648
819.781	1631
819.902	1590
820.022	1617
820.143	1630
820.263	1631
820.384	1625
820.504	1593
820.625	1619
820.745	1633
820.866	1609
820.987	1613
821.107	1619
821.228	1590
821.348	1633
821.469	1590
821.589	1618
821.709	1615
821.83	1614
821.95	1596
822.071	1571
822.191	1606
822.312	1635
822.432	1588
822.553	1601
822.673	1621
822.793	1595
822.914	1582
823.034	1579
823.155	1575
823.275	1589
823.395	1590
823.516	1580
823.636	1591
823.756	1601
823.877	1604
823.997	1592
824.117	1582
824.238	1590
824.358	1604
824.478	1585
824.599	1576
824.719	1574
824.839	1591
824.959	1612
825.08	1555
825.2	1589
825.32	1597
825.44	1578
825.561	1576
825.681	1571
825.801	1558
825.921	1571
826.042	1559
826.162	1549
826.282	1585
826.402	1576
826.522	1574
826.643	1569
826.763	1555
826.883	1546
827.003	1593
827.123	1557
827.243	1577
827.363	1544
827.484	1561
827.604	1572
827.724	1560
827.844	1589
827.964	1526
828.084	1557
828.204	1566
828.324	1546
828.444	1586
828.564	1574
828.684	1537
828.804	1537
828.924	1553
829.044	1586
829.164	1538
829.284	1560
829.404	1596
829.524	1552
829.644	1536
829.764	1538
829.884	1542
830.004	1552
830.124	1553
830.244	1542
830.364	1535
830.484	1543
830.604	1532
830.724	1549
830.844	1528
830.964	1531
830.961	1596
831.086	1542
831.21	1586
831.334	1574
831.459	1604
831.583	1586
831.707	1597
831.832	1579
831.956	1577
832.08	1582
832.204	1574
832.329	1599
832.453	1566
832.577	1579
832.701	1597
832.826	1587
832.95	1584
833.074	1597
833.198	1590
833.323	1584
833.447	1568
833.571	1582
833.695	1558
833.819	1573
833.944	1561
834.068	1542
834.192	1572
834.316	1572
834.44	1586
834.564	1566
834.689	1585
834.813	1574
834.937	1544
835.061	1568
835.185	1573
835.309	1555
835.433	1538
835.558	1575
835.682	1564
835.806	1563
835.93	1568
836.054	1574
836.178	1548
836.302	1546
836.426	1554
836.55	1572
836.674	1546
836.798	1533
836.922	1526
837.046	1544
837.17	1588
837.295	1526
837.419	1540
837.543	1556
837.667	1564
837.791	1547
837.915	1542
838.039	1554
838.163	1551
838.287	1563
838.411	1548
838.535	1541
838.659	1536
838.782	1541
838.906	1524
839.03	1560
839.154	1520
839.278	1528
839.402	1516
839.526	1539
839.65	1511
839.774	1552
839.898	1554
840.022	1550
840.146	1532
840.27	1550
840.393	1542
840.517	1535
840.641	1546
840.765	1503
840.889	1521
841.013	1526
841.137	1539
841.261	1548
841.384	1532
841.508	1546
841.632	1539
841.756	1514
841.88	1501
842.004	1543
842.127	1522
842.251	1519
842.375	1559
842.499	1533
842.622	1520
842.746	1540
842.87	1516
842.994	1531
843.118	1512
843.241	1503
843.365	1499
843.489	1519
843.613	1541
843.736	1520
843.86	1520
843.984	1510
844.107	1500
844.231	1513
844.355	1505
844.479	1552
844.602	1536
844.726	1514
844.85	1510
844.973	1532
845.097	1507
845.221	1509
845.344	1508
845.468	1527
845.592	1540
845.715	1511
845.839	1516
845.962	1513
846.086	1520
846.21	1506
846.333	1499
846.457	1500
846.58	1489
846.704	1511
846.828	1512
846.951	1500
847.075	1500
847.198	1487
847.322	1507
847.445	1523
847.569	1495
847.693	1497
847.816	1487
847.94	1487
848.063	1501
848.187	1523
848.31	1479
848.434	1517
848.557	1485
848.681	1487
848.804	1471
848.928	1498
849.051	1492
849.175	1484
849.298	1495
849.421	1451
849.545	1480
849.668	1493
849.792	1484
849.915	1495
850.039	1474
850.162	1457
850.286	1490
850.409	1444
850.532	1478
850.656	1497
850.779	1483
850.902	1472
851.026	1477
851.149	1483
851.273	1478
851.396	1501
851.519	1462
851.643	1470
851.766	1489
851.889	1489
852.013	1492
852.136	1491
852.259	1478
852.383	1472
852.506	1473
852.629	1497
852.753	1491
852.876	1468
852.999	1482
853.122	1470
853.246	1470
853.369	1457
853.492	1473
853.615	1449
853.739	1461
853.862	1460
853.985	1450
854.108	1480
854.232	1464
854.355	1470
854.478	1473
854.601	1466
854.724	1453
854.848	1477
854.971	1455
855.094	1464
855.217	1438
855.34	1459
855.463	1472
855.587	1474
855.71	1458
855.833	1436
855.956	1454
856.079	1480
856.202	1468
856.325	1444
856.449	1470
856.572	1462
856.695	1449
856.818	1466
856.941	1465
857.064	1450
857.187	1458
857.31	1454
857.433	1471
857.556	1454
857.679	1448
857.802	1461
857.925	1442
858.048	1465
858.171	1472
858.294	1439
858.417	1454
858.54	1447
858.663	1446
858.786	1435
858.909	1436
859.032	1475
859.155	1453
859.278	1435
859.401	1453
859.524	1442
859.647	1453
859.77	1444
859.893	1446
860.016	1446
860.139	1423
860.262	1450
860.385	1433
860.508	1447
860.631	1451
860.754	1429
860.876	1449
860.999	1438
861.122	1475
861.245	1440
861.368	1426
861.491	1424
861.614	1436
861.736	1445
861.859	1455
861.982	1438
862.105	1432
862.228	1445
862.351	1418
862.473	1464
862.596	1435
862.719	1422
862.842	1437
862.965	1456
863.087	1445
863.21	1445
863.333	1410
863.456	1408
863.578	1426
863.701	1411
863.824	1409
863.947	1419
864.069	1440
864.192	1429
864.315	1418
864.438	1422
864.56	1457
864.683	1434
864.806	1408
864.928	1426
865.051	1420
865.174	1420
865.296	1402
865.419	1436
865.542	1441
865.664	1421
865.787	1417
865.91	1393
866.032	1409
866.155	1428
866.277	1419
866.4	1431
866.523	1435
866.645	1405
866.768	1410
866.89	1418
867.013	1410
867.136	1419
867.258	1396
867.381	1411
867.503	1413
867.626	1423
867.748	1410
867.871	1390
867.993	1409
868.116	1441
868.238	1400
868.361	1418
868.483	1421
868.606	1384
868.728	1397
868.851	1401
868.973	1406
869.096	1426
869.218	1407
869.341	1430
869.463	1417
869.586	1386
869.708	1407
869.83	1412
869.953	1416
870.075	1421
870.198	1420
870.32	1387
870.442	1405
870.565	1409
870.687	1406
870.81	1415
870.932	1410
871.054	1396
871.177	1401
871.299	1409
871.421	1424
871.544	1401
871.666	1396
871.788	1409
871.911	1414
872.033	1395
872.155	1423
872.278	1389
872.4	1398
872.522	1411
872.645	1402
872.767	1393
872.889	1389
873.011	1373
873.134	1379
873.256	1401
873.378	1396
873.5	1399
873.623	1385
873.745	1395
873.867	1394
873.989	1377
874.111	1397
874.234	1374
874.356	1409
874.478	1405
874.6	1395
874.722	1395
874.845	1376
874.967	1411
875.089	1402
875.211	1378
875.333	1390
875.455	1385
875.577	1399
875.7	1415
875.822	1396
875.944	1397
876.066	1370
876.188	1389
876.31	1388
876.432	1369
876.554	1370
876.676	1405
876.798	1389
876.92	1362
877.042	1382
877.164	1379
877.287	1399
877.409	1379
877.531	1408
877.653	1387
877.775	1379
877.897	1360
878.019	1403
878.141	1395
878.263	1373
878.385	1374
878.507	1372
878.628	1367
878.75	1384
878.872	1354
878.994	1376
879.116	1389
879.238	1364
879.36	1384
879.482	1354
879.604	1363
879.726	1383
879.848	1390
879.97	1365
880.092	1368
880.213	1360
880.335	1371
880.457	1375
880.579	1382
880.701	1364
880.823	1373
880.945	1368
881.066	1359
881.188	1366
881.31	1373
881.432	1347
881.554	1351
881.675	1382
881.797	1363
881.919	1368
882.041	1367
882.163	1367
882.284	1398
882.406	1362
882.528	1365
882.65	1371
882.771	1360
882.893	1368
883.015	1362
883.137	1370
883.258	1405
883.38	1382
883.502	1348
883.623	1375
883.745	1369
883.867	1357
883.988	1368
884.11	1354
884.232	1339
884.353	1367
884.475	1368
884.597	1343
884.718	1358
884.84	1377
884.962	1357
885.083	1375
885.205	1346
885.326	1339
885.448	1358
885.57	1343
885.691	1335
885.813	1329
885.934	1346
886.056	1363
886.177	1361
886.299	1361
886.421	1365
886.542	1349
886.664	1330
886.785	1370
886.907	1334
887.028	1331
887.15	1326
887.271	1333
887.393	1340
887.514	1358
887.636	1344
887.757	1348
887.879	1327
888	1358
888.121	1343
888.243	1345
888.364	1318
888.486	1339
888.607	1340
888.729	1358
888.85	1329
888.971	1328
889.093	1348
889.214	1349
889.336	1332
889.457	1331
889.578	1334
889.7	1328
889.821	1335
889.942	1347
890.064	1334
890.185	1340
890.306	1343
890.428	1365
890.549	1331
890.67	1333
890.792	1338
890.913	1341
891.034	1338
891.156	1345
891.277	1355
891.398	1336
891.519	1324
891.641	1312
891.762	1338
891.883	1338
892.004	1325
892.126	1336
892.247	1330
892.368	1353
892.489	1331
892.61	1326
892.732	1327
892.853	1325
892.974	1336
893.095	1334
893.216	1310
893.337	1313
893.459	1332
893.58	1316
893.701	1317
893.822	1337
893.943	1319
894.064	1337
894.185	1325
894.306	1309
894.428	1302
894.549	1332
894.67	1299
894.791	1336
894.912	1314
895.033	1326
895.154	1320
895.275	1307
895.396	1304
895.517	1319
895.638	1308
895.759	1310
895.88	1300
896.001	1293
896.122	1325
896.243	1310
896.364	1304
896.485	1338
896.606	1301
896.727	1309
896.848	1300
896.969	1311
897.09	1315
897.211	1295
897.332	1301
897.453	1295
897.574	1323
897.695	1310
897.816	1300
897.936	1298
898.057	1301
898.178	1318
898.299	1305
898.42	1309
898.541	1294
898.662	1287
898.783	1303
898.903	1293
899.024	1317
899.145	1312
899.266	1295
899.387	1298
899.507	1317
899.628	1300
899.749	1311
899.87	1310
899.991	1300
900.111	1292
900.232	1305
900.353	1304
900.474	1278
900.594	1295
900.715	1302
900.836	1306
900.957	1296
901.077	1308
901.198	1300
901.319	1294
901.439	1296
901.56	1273
901.681	1265
901.802	1291
901.922	1283
902.043	1289
902.164	1283
902.284	1292
902.405	1299
902.525	1282
902.646	1271
902.767	1298
902.887	1291
903.008	1285
903.129	1282
903.249	1299
903.37	1285
903.49	1282
903.611	1298
903.731	1277
903.852	1276
903.973	1291
904.093	1281
904.214	1288
904.334	1276
904.455	1280
904.575	1284
904.696	1267
904.816	1269
904.937	1282
905.057	1287
905.178	1262
905.298	1270
905.419	1271
905.539	1284
905.66	1271
905.78	1261
905.9	1274
906.021	1278
906.141	1266
906.262	1295
906.382	1266
906.503	1270
906.623	1270
906.743	1261
906.864	1279
906.984	1258
907.104	1240
907.225	1259
907.345	1257
907.466	1275
907.586	1262
907.706	1291
907.827	1294
907.947	1258
908.067	1264
908.188	1265
908.308	1271
908.428	1251
908.548	1272
908.669	1270
908.789	1289
908.909	1256
909.029	1258
909.15	1265
909.27	1249
909.39	1245
909.51	1247
909.631	1255
909.751	1248
909.871	1246
909.991	1252
910.111	1275
910.232	1239
910.352	1275
910.472	1252
910.592	1243
910.712	1252
910.832	1250
910.953	1231
911.073	1242
911.193	1227
911.313	1256
911.433	1222
911.553	1244
911.673	1247
911.793	1237
911.914	1242
912.034	1211
912.154	1246
912.274	1262
912.394	1256
912.514	1224
912.634	1251
912.754	1233
912.874	1243
912.994	1236
913.114	1231
913.234	1236
913.354	1231
913.474	1233
913.594	1245
913.714	1230
913.834	1233
913.954	1228
914.074	1228
914.194	1239
914.314	1248
914.434	1252
914.554	1227
914.674	1236
914.794	1247
914.913	1237
915.033	1228
915.153	1236
915.273	1209
915.393	1237
915.513	1244
915.633	1228
915.753	1221
915.872	1237
915.992	1237
916.112	1237
916.232	1244
916.352	1226
916.472	1239
916.591	1211
916.711	1216
916.831	1210
916.951	1233
917.071	1220
917.19	1217
917.31	1252
917.43	1240
917.55	1221
917.669	1220
917.789	1230
917.909	1220
918.029	1226
918.148	1216
918.268	1223
918.388	1227
918.507	1222
918.627	1221
918.747	1226
918.866	1218
918.986	1232
919.106	1242
919.225	1209
919.345	1229
919.465	1223
919.584	1233
919.704	1213
919.824	1232
919.943	1222
920.063	1231
920.182	1212
920.302	1210
920.421	1233
920.541	1214
920.661	1216
920.78	1204
920.9	1222
921.019	1205
921.139	1213
921.258	1217
921.378	1227
921.497	1223
921.617	1217
921.736	1214
921.856	1200
921.975	1217
922.095	1225
922.214	1223
922.334	1224
922.453	1214
922.573	1195
922.692	1223
922.812	1211
922.931	1222
923.05	1208
923.17	1208
923.289	1215
923.409	1198
923.528	1221
923.647	1212
923.767	1210
923.886	1218
924.005	1212
924.125	1201
924.244	1220
924.363	1201
924.483	1224
924.602	1208
924.721	1226
924.841	1194
924.96	1215
925.079	1202
925.199	1218
925.318	1212
925.437	1205
925.556	1220
925.676	1218
925.795	1214
925.914	1215
926.033	1209
926.153	1197
926.272	1207
926.391	1220
926.51	1203
926.629	1204
926.749	1199
926.868	1203
926.987	1215
927.106	1195
927.225	1189
927.345	1210
927.464	1216
927.583	1215
927.702	1222
927.821	1217
927.94	1200
928.059	1193
928.178	1202
928.297	1203
928.417	1199
928.536	1194
928.655	1198
928.774	1201
928.893	1217
929.012	1200
929.131	1207
929.25	1206
929.369	1219
929.488	1197
929.607	1205
929.726	1196
929.845	1212
929.964	1191
930.083	1186
930.202	1200
930.321	1212
930.44	1202
930.559	1184
930.678	1201
930.797	1195
930.916	1180
931.035	1206
931.154	1186
931.272	1189
931.391	1175
931.51	1195
931.629	1185
931.748	1197
931.867	1187
931.986	1204
932.105	1192
932.223	1193
932.342	1203
932.461	1179
932.58	1180
932.699	1199
932.818	1197
932.936	1220
933.055	1184
933.174	1192
933.293	1195
933.412	1189
933.53	1192
933.649	1193
933.768	1192
933.887	1197
934.005	1188
934.124	1192
934.243	1176
934.361	1204
934.48	1185
934.599	1184
934.718	1190
934.836	1183
934.955	1177
935.074	1212
935.192	1182
935.311	1190
935.43	1192
935.548	1193
935.667	1183
935.785	1195
935.904	1201
936.023	1184
936.141	1183
936.26	1184
936.378	1203
936.497	1194
936.616	1176
936.734	1170
936.853	1172
936.971	1176
937.09	1186
937.208	1184
937.327	1180
937.445	1196
937.564	1171
937.682	1180
937.801	1188
937.919	1182
938.038	1168
938.156	1172
938.275	1187
938.393	1165
938.512	1172
938.63	1183
938.749	1178
938.867	1179
938.986	1200
939.104	1169
939.222	1170
939.341	1180
939.459	1172
939.577	1177
939.696	1175
939.814	1178
939.933	1177
940.051	1169
940.169	1176
940.288	1172
940.406	1182
940.524	1167
940.643	1169
940.761	1189
940.879	1176
940.998	1167
941.116	1182
941.234	1161
941.352	1174
941.471	1187
941.589	1176
941.707	1172
941.825	1166
941.944	1173
942.062	1167
942.18	1164
942.298	1177
942.416	1156
942.535	1164
942.653	1157
942.771	1166
942.889	1171
943.007	1171
943.125	1180
943.244	1168
943.362	1163
943.48	1163
943.598	1171
943.716	1173
943.834	1153
943.952	1163
944.07	1167
944.189	1177
944.307	1155
944.425	1159
944.543	1163
944.661	1153
944.779	1161
944.897	1151
945.015	1166
945.133	1163
945.251	1147
945.369	1159
945.487	1161
945.605	1151
945.723	1158
945.841	1153
945.959	1145
946.077	1155
946.195	1152
946.313	1153
946.431	1148
946.549	1155
946.667	1155
946.785	1155
946.902	1133
947.02	1171
947.138	1153
947.256	1162
947.374	1165
947.492	1145
947.61	1150
947.728	1156
947.845	1149
947.963	1172
948.081	1145
948.199	1151
948.317	1142
948.435	1156
948.552	1151
948.67	1139
948.788	1155
948.906	1149
949.024	1161
949.141	1150
949.259	1161
949.377	1130
949.495	1145
949.612	1145
949.73	1157
949.848	1145
949.965	1152
950.083	1148
950.201	1146
950.318	1147
950.436	1146
950.554	1150
950.672	1124
950.789	1140
950.907	1142
951.024	1148
951.142	1140
951.26	1143
951.377	1145
951.495	1148
951.613	1152
951.73	1138
951.848	1146
951.965	1138
952.083	1142
952.2	1137
952.318	1145
952.436	1141
952.553	1140
952.671	1131
952.788	1136
952.906	1138
953.023	1152
953.141	1148
953.258	1132
953.376	1128
953.493	1138
953.611	1126
953.728	1134
953.845	1134
953.963	1134
954.08	1126
954.198	1128
