Wavelength	PL390-MAO-Cr-Mau1
nm	Counts
449.342	1029
449.472	1024
449.602	1023
449.732	1033
449.862	1038
449.992	1019
450.122	1024
450.252	1034
450.382	1031
450.512	1025
450.642	1027
450.772	1031
450.902	1032
451.032	1034
451.162	1027
451.292	1030
451.422	1033
451.552	1026
451.682	1025
451.812	1040
451.942	1034
452.071	1027
452.201	1018
452.331	1033
452.461	1035
452.591	1024
452.721	1034
452.851	1036
452.981	1033
453.111	1023
453.241	1028
453.371	1029
453.501	1026
453.63	1021
453.76	1025
453.89	1029
454.02	1030
454.15	1024
454.28	1029
454.41	1019
454.539	1031
454.669	1025
454.799	1032
454.929	1030
455.059	1032
455.189	1030
455.318	1026
455.448	1025
455.578	1029
455.708	1038
455.838	1035
455.968	1035
456.097	1032
456.227	1030
456.357	1034
456.487	1030
456.617	1027
456.746	1023
456.876	1033
457.006	1030
457.136	1027
457.265	1026
457.395	1026
457.525	1035
457.655	1023
457.784	1031
457.914	1036
458.044	1031
458.174	1028
458.303	1025
458.433	1030
458.563	1033
458.692	1028
458.822	1032
458.952	1038
459.081	1030
459.211	1020
459.341	1024
459.47	1030
459.6	1033
459.73	1029
459.86	1035
459.989	1035
460.119	1031
460.248	1029
460.378	1030
460.508	1035
460.637	1024
460.767	1025
460.897	1029
461.026	1025
461.156	1031
461.286	1030
461.415	1040
461.545	1034
461.674	1030
461.804	1031
461.933	1029
462.063	1027
462.193	1032
462.322	1031
462.452	1024
462.581	1032
462.711	1033
462.84	1035
462.97	1034
463.1	1028
463.229	1036
463.359	1028
463.488	1030
463.618	1032
463.747	1023
463.877	1028
464.006	1026
464.136	1035
464.265	1035
464.395	1028
464.524	1029
464.654	1021
464.783	1030
464.913	1033
465.042	1032
465.172	1031
465.301	1035
465.431	1035
465.56	1034
465.69	1031
465.819	1027
465.948	1037
466.078	1029
466.207	1026
466.337	1028
466.466	1028
466.596	1036
466.725	1031
466.854	1031
466.984	1043
467.113	1028
467.243	1034
467.372	1031
467.501	1031
467.631	1031
467.76	1028
467.889	1032
468.019	1031
468.148	1039
468.278	1033
468.407	1038
468.536	1019
468.666	1029
468.795	1023
468.924	1027
469.054	1026
469.183	1029
469.312	1038
469.442	1035
469.571	1027
469.7	1033
469.829	1037
469.959	1041
470.088	1033
470.217	1037
470.347	1031
470.476	1029
470.605	1028
470.734	1039
470.864	1035
470.993	1036
471.122	1039
471.251	1037
471.381	1030
471.51	1035
471.639	1032
471.768	1028
471.898	1032
472.027	1040
472.156	1031
472.285	1036
472.414	1024
472.544	1029
472.673	1028
472.802	1025
472.931	1035
473.06	1044
473.189	1031
473.319	1027
473.448	1033
473.577	1035
473.706	1031
473.835	1033
473.964	1030
474.094	1039
474.223	1037
474.352	1035
474.481	1029
474.61	1029
474.739	1036
474.868	1034
474.997	1030
475.126	1030
475.256	1031
475.385	1033
475.514	1035
475.643	1038
475.772	1030
475.901	1035
476.03	1034
476.159	1035
476.288	1043
476.417	1039
476.546	1030
476.675	1027
476.804	1034
476.933	1037
477.062	1035
477.191	1028
477.32	1038
477.449	1036
477.578	1031
477.707	1033
477.836	1038
477.965	1036
478.094	1033
478.223	1039
478.352	1035
478.481	1032
478.61	1041
478.739	1033
478.868	1039
478.997	1034
479.126	1035
479.255	1032
479.384	1043
479.513	1032
479.642	1030
479.771	1031
479.9	1039
480.028	1038
480.157	1032
480.286	1038
480.415	1035
480.544	1036
480.673	1038
480.802	1029
480.931	1048
481.06	1037
481.188	1029
481.317	1038
481.446	1029
481.575	1034
481.704	1029
481.833	1040
481.961	1037
482.09	1035
482.219	1034
482.348	1032
482.477	1031
482.606	1043
482.734	1033
482.863	1038
482.992	1035
483.121	1035
483.249	1034
483.378	1047
483.507	1044
483.636	1041
483.765	1039
483.893	1039
484.022	1041
484.151	1038
484.28	1037
484.408	1032
484.537	1038
484.666	1039
484.794	1033
484.923	1035
485.052	1032
485.181	1044
485.309	1040
485.438	1037
485.567	1035
485.695	1040
485.824	1039
485.953	1039
486.081	1040
486.21	1042
486.339	1056
486.467	1036
486.596	1036
486.725	1049
486.853	1050
486.982	1041
487.11	1048
487.239	1035
487.368	1038
487.496	1041
487.625	1041
487.754	1038
487.882	1035
488.011	1047
488.139	1043
488.268	1051
488.396	1043
488.525	1041
488.654	1039
488.782	1041
488.911	1048
489.039	1043
489.168	1042
489.296	1036
489.425	1041
489.553	1045
489.682	1040
489.81	1039
489.939	1045
490.067	1040
490.196	1040
490.324	1042
490.453	1046
490.581	1045
490.71	1040
490.838	1047
490.967	1043
491.095	1044
491.224	1048
491.352	1038
491.481	1032
491.609	1038
491.738	1055
491.866	1038
491.994	1039
492.123	1040
492.251	1038
492.38	1045
492.508	1045
492.636	1038
492.765	1037
492.893	1041
493.022	1048
493.15	1045
493.278	1033
493.407	1046
493.535	1053
493.663	1032
493.792	1029
493.92	1047
494.049	1048
494.177	1044
494.305	1044
494.434	1036
494.562	1038
494.69	1043
494.818	1040
494.947	1051
495.075	1045
495.203	1046
495.332	1056
495.46	1046
495.588	1051
495.716	1043
495.845	1046
495.973	1044
496.101	1037
496.23	1050
496.358	1041
496.486	1044
496.614	1041
496.742	1051
496.871	1037
496.999	1051
497.127	1050
497.255	1038
497.384	1032
497.512	1040
497.64	1061
497.768	1035
497.896	1040
498.024	1057
498.153	1049
498.281	1043
498.409	1043
498.537	1039
498.665	1052
498.793	1041
498.922	1038
499.05	1043
499.178	1045
499.306	1042
499.434	1038
499.562	1046
499.69	1041
499.818	1043
499.947	1036
500.075	1031
500.203	1048
500.331	1038
500.459	1049
500.587	1043
500.715	1036
500.843	1054
500.971	1045
501.099	1040
501.227	1043
501.355	1042
501.483	1046
501.611	1048
501.739	1048
501.867	1055
501.995	1053
502.123	1046
502.251	1049
502.379	1050
502.507	1049
502.635	1044
502.763	1040
502.891	1044
503.019	1050
503.147	1048
503.275	1047
503.403	1047
503.531	1044
503.659	1051
503.787	1052
503.915	1042
504.043	1050
504.171	1043
504.299	1039
504.426	1038
504.554	1043
504.682	1042
504.81	1045
504.938	1047
505.066	1052
505.194	1041
505.322	1046
505.449	1045
505.577	1046
505.705	1054
505.833	1043
505.961	1043
506.089	1051
506.217	1041
506.344	1046
506.472	1042
506.6	1041
506.728	1040
506.856	1045
506.983	1054
507.111	1046
507.239	1041
507.367	1051
507.495	1047
507.622	1045
507.75	1050
507.878	1045
508.006	1042
508.133	1043
508.261	1050
508.389	1042
508.516	1046
508.644	1046
508.772	1049
508.9	1052
509.027	1047
509.155	1047
509.283	1052
509.41	1044
509.538	1050
509.666	1039
509.793	1050
509.921	1047
510.049	1061
510.176	1043
510.304	1042
510.432	1044
510.559	1043
510.687	1051
510.815	1044
510.942	1056
511.07	1050
511.197	1053
511.325	1057
511.453	1050
511.58	1054
511.708	1048
511.835	1047
511.963	1049
512.091	1051
512.218	1044
512.346	1056
512.473	1055
512.601	1044
512.728	1052
512.856	1046
512.983	1053
513.111	1042
513.238	1050
513.366	1047
513.494	1043
513.621	1054
513.749	1052
513.876	1054
514.003	1043
514.131	1049
514.258	1048
514.386	1056
514.513	1045
514.641	1050
514.768	1050
514.896	1052
515.023	1052
515.151	1049
515.278	1055
515.405	1053
515.533	1055
515.66	1046
515.788	1050
515.915	1047
516.042	1055
516.17	1046
516.297	1048
516.425	1047
516.552	1052
516.679	1052
516.807	1053
516.934	1055
517.061	1038
517.189	1037
517.316	1051
517.443	1054
517.571	1048
517.698	1055
517.825	1051
517.953	1052
518.08	1048
518.207	1054
518.335	1057
518.462	1038
518.589	1043
518.716	1043
518.844	1052
518.971	1057
519.098	1046
519.226	1055
519.353	1057
519.48	1045
519.607	1054
519.734	1058
519.862	1041
519.989	1043
520.116	1047
520.243	1044
520.371	1049
520.498	1051
520.625	1043
520.752	1043
520.879	1051
521.006	1045
521.134	1060
521.261	1053
521.388	1048
521.515	1046
521.642	1051
521.769	1053
521.896	1046
522.024	1054
522.151	1052
522.278	1048
522.405	1046
522.532	1045
522.659	1050
522.786	1057
522.913	1047
523.04	1059
523.167	1044
523.295	1055
523.422	1060
523.549	1054
523.676	1050
523.803	1053
523.93	1060
524.057	1052
524.184	1050
524.311	1048
524.438	1044
524.565	1059
524.692	1052
524.819	1057
524.946	1049
525.073	1052
525.2	1046
525.327	1053
525.454	1058
525.581	1048
525.708	1051
525.835	1055
525.962	1051
526.088	1051
526.215	1053
526.342	1047
526.469	1059
526.596	1062
526.723	1053
526.85	1041
526.977	1044
527.104	1054
527.231	1050
527.358	1045
527.484	1055
527.611	1051
527.738	1051
527.865	1052
527.992	1047
528.119	1069
528.246	1059
528.372	1049
528.499	1051
528.626	1055
528.753	1052
528.88	1044
529.006	1043
529.133	1050
529.26	1051
529.387	1054
529.514	1053
529.64	1049
529.767	1058
529.894	1052
530.021	1055
530.147	1056
530.274	1050
530.401	1061
530.528	1052
530.654	1065
530.781	1059
530.908	1055
531.034	1051
531.161	1041
531.288	1052
531.414	1045
531.541	1053
531.668	1056
531.795	1052
531.921	1055
532.048	1060
532.174	1058
532.301	1048
532.428	1057
532.554	1051
532.681	1057
532.808	1052
532.934	1046
533.061	1047
533.187	1056
533.314	1050
533.441	1056
533.567	1060
533.694	1057
533.82	1047
533.947	1043
534.074	1034
534.2	1054
534.327	1050
534.453	1052
534.58	1057
534.706	1052
534.833	1054
534.959	1053
535.086	1067
535.212	1055
535.339	1059
535.465	1049
535.592	1050
535.718	1047
535.845	1055
535.971	1058
536.098	1057
536.224	1059
536.351	1066
536.477	1049
536.604	1058
536.73	1055
536.856	1049
536.983	1044
537.109	1058
537.236	1056
537.362	1048
537.488	1058
537.615	1058
537.741	1053
537.868	1052
537.994	1059
538.12	1049
538.247	1052
538.373	1047
538.499	1054
538.626	1056
538.752	1046
538.878	1051
539.005	1054
539.131	1052
539.257	1048
539.384	1050
539.51	1066
539.636	1052
539.763	1059
539.889	1056
540.015	1049
540.141	1065
540.268	1054
540.394	1057
540.52	1052
540.646	1042
540.773	1052
540.899	1066
541.025	1059
541.151	1058
541.278	1048
541.404	1058
541.53	1054
541.656	1048
541.782	1058
541.909	1053
542.035	1051
542.161	1056
542.287	1062
542.413	1057
542.539	1042
542.665	1058
542.792	1050
542.918	1058
543.044	1056
543.17	1056
543.296	1058
543.422	1050
543.548	1054
543.674	1063
543.801	1053
543.927	1052
544.053	1047
544.179	1056
544.305	1058
544.431	1055
544.557	1060
544.683	1057
544.809	1062
544.935	1054
545.061	1054
545.187	1057
545.313	1052
545.439	1066
545.565	1052
545.691	1056
545.817	1056
545.943	1057
546.069	1055
546.195	1049
546.321	1051
546.447	1047
546.573	1052
546.699	1060
546.825	1066
546.951	1059
547.077	1059
547.203	1051
547.329	1075
547.454	1056
547.58	1047
547.706	1051
547.832	1043
547.958	1050
548.084	1055
548.21	1059
548.336	1050
548.462	1061
548.587	1062
548.713	1047
548.839	1055
548.965	1058
549.091	1058
549.217	1035
549.342	1051
549.468	1049
549.594	1049
549.72	1059
549.846	1052
549.971	1050
550.097	1061
550.223	1050
550.349	1060
550.474	1061
550.6	1055
550.726	1055
550.852	1053
550.977	1047
551.103	1057
551.229	1054
551.355	1055
551.48	1052
551.606	1054
551.732	1046
551.857	1059
551.983	1056
552.109	1059
552.234	1048
552.36	1059
552.486	1054
552.611	1054
552.737	1048
552.863	1051
552.988	1061
553.114	1055
553.24	1051
553.365	1058
553.491	1060
553.616	1052
553.742	1058
553.868	1061
553.993	1068
554.119	1064
554.244	1054
554.37	1049
554.495	1053
554.621	1061
554.746	1050
554.872	1064
554.998	1054
555.123	1072
555.249	1051
555.374	1047
555.5	1057
555.625	1064
555.751	1055
555.876	1066
556.002	1049
556.127	1056
556.252	1049
556.378	1060
556.503	1052
556.629	1059
556.754	1061
556.88	1069
557.005	1057
557.131	1068
557.256	1058
557.381	1052
557.507	1062
557.632	1067
557.758	1060
557.883	1057
558.008	1057
558.134	1054
558.259	1052
558.384	1058
558.51	1053
558.635	1057
558.76	1057
558.886	1057
559.011	1057
559.136	1051
559.262	1056
559.387	1060
559.512	1056
559.638	1052
559.763	1049
559.888	1052
560.013	1066
560.139	1045
560.264	1055
560.389	1060
560.514	1061
560.64	1058
560.765	1056
560.89	1050
561.015	1062
561.141	1054
561.266	1043
561.391	1063
561.516	1067
561.641	1056
561.767	1060
561.892	1049
562.017	1061
562.142	1062
562.267	1061
562.392	1060
562.518	1055
562.643	1053
562.768	1056
562.893	1065
563.018	1063
563.143	1051
563.268	1057
563.393	1056
563.518	1058
563.644	1062
563.769	1065
563.894	1061
564.019	1059
564.144	1050
564.269	1053
564.394	1063
564.519	1055
564.644	1056
564.769	1074
564.894	1056
565.019	1057
565.144	1060
565.269	1056
565.394	1049
565.519	1059
565.644	1053
565.769	1060
565.894	1064
566.019	1069
566.144	1055
566.269	1065
566.394	1049
566.519	1054
566.644	1070
566.769	1061
566.893	1058
567.018	1057
567.143	1061
567.268	1063
567.393	1063
567.518	1061
567.643	1063
567.768	1056
567.893	1050
568.017	1060
568.142	1052
568.267	1043
568.392	1053
568.517	1055
568.642	1052
568.766	1060
568.891	1058
569.016	1052
569.141	1064
569.266	1053
569.39	1055
569.515	1060
569.64	1057
569.765	1064
569.889	1056
570.014	1060
570.139	1060
570.264	1057
570.388	1052
570.513	1068
570.638	1051
570.762	1055
570.887	1058
571.012	1067
571.137	1061
571.261	1064
571.386	1058
571.511	1062
571.635	1062
571.76	1061
571.885	1062
572.009	1064
572.134	1050
572.258	1054
572.383	1057
572.508	1062
572.632	1060
572.757	1061
572.881	1058
573.006	1055
573.131	1058
573.255	1059
573.38	1064
573.504	1057
573.629	1055
573.753	1056
573.878	1078
574.003	1059
574.127	1060
574.252	1051
574.376	1056
574.501	1057
574.625	1067
574.75	1051
574.874	1062
574.999	1065
575.123	1054
575.248	1071
575.372	1075
575.496	1055
575.621	1072
575.745	1065
575.87	1061
575.994	1061
576.119	1069
576.243	1061
576.367	1055
576.492	1070
576.616	1056
576.741	1060
576.865	1058
576.989	1060
577.114	1062
577.238	1060
577.362	1064
577.487	1059
577.611	1064
577.735	1062
577.86	1058
577.984	1074
578.108	1063
578.233	1065
578.357	1070
578.481	1068
578.606	1067
578.73	1061
578.854	1071
578.978	1065
578.977	1053
579.106	1051
579.234	1048
579.362	1046
579.491	1043
579.619	1053
579.747	1061
579.875	1045
580.004	1047
580.132	1053
580.26	1049
580.388	1057
580.517	1050
580.645	1061
580.773	1050
580.901	1048
581.03	1064
581.158	1050
581.286	1052
581.414	1059
581.542	1057
581.671	1056
581.799	1053
581.927	1061
582.055	1054
582.183	1058
582.312	1060
582.44	1061
582.568	1071
582.696	1057
582.824	1052
582.952	1053
583.08	1055
583.209	1062
583.337	1069
583.465	1063
583.593	1060
583.721	1063
583.849	1068
583.977	1048
584.105	1062
584.233	1056
584.362	1057
584.49	1066
584.618	1062
584.746	1056
584.874	1064
585.002	1063
585.13	1067
585.258	1077
585.386	1067
585.514	1051
585.642	1065
585.77	1070
585.898	1054
586.026	1058
586.154	1073
586.282	1067
586.41	1077
586.538	1071
586.666	1046
586.794	1067
586.922	1071
587.05	1066
587.178	1063
587.306	1075
587.434	1078
587.562	1067
587.69	1068
587.818	1072
587.946	1067
588.074	1072
588.202	1071
588.33	1068
588.458	1069
588.586	1072
588.714	1074
588.842	1081
588.97	1071
589.097	1074
589.225	1077
589.353	1081
589.481	1070
589.609	1076
589.737	1080
589.865	1069
589.993	1071
590.121	1084
590.248	1070
590.376	1080
590.504	1068
590.632	1085
590.76	1088
590.888	1087
591.015	1086
591.143	1083
591.271	1080
591.399	1072
591.527	1081
591.655	1090
591.782	1087
591.91	1088
592.038	1081
592.166	1084
592.294	1082
592.421	1089
592.549	1079
592.677	1084
592.805	1083
592.932	1098
593.06	1092
593.188	1093
593.316	1082
593.443	1091
593.571	1083
593.699	1101
593.826	1093
593.954	1093
594.082	1095
594.21	1089
594.337	1086
594.465	1098
594.593	1093
594.72	1078
594.848	1089
594.976	1108
595.103	1100
595.231	1102
595.359	1108
595.486	1103
595.614	1096
595.742	1102
595.869	1101
595.997	1118
596.124	1110
596.252	1102
596.38	1102
596.507	1108
596.635	1094
596.763	1106
596.89	1108
597.018	1110
597.145	1108
597.273	1109
597.4	1117
597.528	1112
597.656	1113
597.783	1109
597.911	1121
598.038	1124
598.166	1128
598.293	1128
598.421	1116
598.548	1128
598.676	1123
598.803	1117
598.931	1125
599.058	1132
599.186	1122
599.313	1132
599.441	1130
599.568	1124
599.696	1131
599.823	1126
599.951	1136
600.078	1129
600.206	1133
600.333	1144
600.461	1129
600.588	1143
600.715	1129
600.843	1144
600.97	1129
601.098	1155
601.225	1138
601.353	1147
601.48	1138
601.607	1139
601.735	1145
601.862	1140
601.99	1140
602.117	1142
602.244	1141
602.372	1152
602.499	1141
602.626	1153
602.754	1165
602.881	1152
603.008	1145
603.136	1172
603.263	1162
603.39	1141
603.518	1146
603.645	1142
603.772	1160
603.9	1152
604.027	1158
604.154	1171
604.281	1152
604.409	1164
604.536	1179
604.663	1180
604.791	1167
604.918	1177
605.045	1167
605.172	1169
605.3	1148
605.427	1168
605.554	1170
605.681	1168
605.809	1162
605.936	1175
606.063	1168
606.19	1169
606.317	1186
606.445	1172
606.572	1174
606.699	1184
606.826	1183
606.953	1201
607.08	1193
607.208	1193
607.335	1189
607.462	1193
607.589	1200
607.716	1187
607.843	1180
607.97	1183
608.098	1189
608.225	1186
608.352	1192
608.479	1206
608.606	1211
608.733	1198
608.86	1196
608.987	1218
609.114	1200
609.241	1235
609.369	1194
609.496	1207
609.623	1208
609.75	1222
609.877	1211
610.004	1213
610.131	1209
610.258	1214
610.385	1220
610.512	1223
610.639	1214
610.766	1227
610.893	1204
611.02	1231
611.147	1226
611.274	1220
611.401	1233
611.528	1233
611.655	1238
611.782	1229
611.909	1234
612.036	1238
612.163	1251
612.29	1219
612.417	1254
612.543	1248
612.67	1253
612.797	1252
612.924	1241
613.051	1264
613.178	1244
613.305	1266
613.432	1251
613.559	1236
613.686	1285
613.813	1265
613.939	1258
614.066	1275
614.193	1266
614.32	1254
614.447	1269
614.574	1291
614.701	1256
614.827	1268
614.954	1295
615.081	1271
615.208	1283
615.335	1278
615.461	1308
615.588	1277
615.715	1296
615.842	1286
615.969	1292
616.095	1304
616.222	1295
616.349	1289
616.476	1308
616.602	1301
616.729	1310
616.856	1313
616.983	1316
617.109	1296
617.236	1306
617.363	1312
617.49	1309
617.616	1325
617.743	1314
617.87	1318
617.996	1347
618.123	1336
618.25	1332
618.376	1353
618.503	1338
618.63	1321
618.756	1327
618.883	1331
619.01	1361
619.136	1335
619.263	1340
619.39	1338
619.516	1348
619.643	1359
619.769	1374
619.896	1348
620.023	1345
620.149	1351
620.276	1368
620.402	1356
620.529	1360
620.656	1347
620.782	1370
620.909	1354
621.035	1371
621.162	1362
621.288	1386
621.415	1393
621.541	1361
621.668	1393
621.795	1384
621.921	1388
622.048	1397
622.174	1389
622.301	1395
622.427	1372
622.554	1382
622.68	1405
622.807	1408
622.933	1402
623.059	1412
623.186	1416
623.312	1418
623.439	1415
623.565	1444
623.692	1406
623.818	1425
623.945	1431
624.071	1442
624.197	1453
624.324	1427
624.45	1427
624.577	1436
624.703	1466
624.829	1441
624.956	1443
625.082	1467
625.209	1456
625.335	1477
625.461	1451
625.588	1471
625.714	1468
625.84	1463
625.967	1488
626.093	1482
626.219	1468
626.346	1483
626.472	1488
626.598	1496
626.725	1518
626.851	1498
626.977	1504
627.103	1510
627.23	1493
627.356	1514
627.482	1515
627.608	1495
627.735	1539
627.861	1513
627.987	1532
628.113	1539
628.24	1530
628.366	1531
628.492	1514
628.618	1569
628.745	1539
628.871	1531
628.997	1552
629.123	1556
629.249	1557
629.376	1574
629.502	1564
629.628	1573
629.754	1568
629.88	1582
630.006	1600
630.132	1589
630.259	1582
630.385	1575
630.511	1599
630.637	1598
630.763	1599
630.889	1568
631.015	1621
631.141	1635
631.268	1631
631.394	1648
631.52	1635
631.646	1690
631.772	1620
631.898	1661
632.024	1621
632.15	1666
632.276	1676
632.402	1688
632.528	1661
632.654	1674
632.78	1700
632.906	1675
633.032	1698
633.158	1679
633.284	1739
633.41	1697
633.536	1719
633.662	1749
633.788	1747
633.914	1744
634.04	1717
634.166	1729
634.292	1739
634.418	1754
634.544	1770
634.67	1768
634.796	1776
634.922	1770
635.048	1775
635.173	1814
635.299	1803
635.425	1781
635.551	1821
635.677	1847
635.803	1813
635.929	1810
636.055	1815
636.181	1851
636.306	1861
636.432	1845
636.558	1868
636.684	1874
636.81	1871
636.936	1876
637.061	1852
637.187	1871
637.313	1862
637.439	1884
637.565	1881
637.69	1905
637.816	1890
637.942	1900
638.068	1854
638.193	1887
638.319	1889
638.445	1976
638.571	1931
638.696	1929
638.822	1949
638.948	1945
639.074	1960
639.199	1984
639.325	1991
639.451	1976
639.577	2004
639.702	2011
639.828	2069
639.954	1994
640.079	2015
640.205	2010
640.331	2027
640.456	2018
640.582	2091
640.708	2095
640.833	2033
640.959	2085
641.084	2066
641.21	2100
641.336	2090
641.461	2106
641.587	2125
641.712	2149
641.838	2160
641.964	2143
642.089	2194
642.215	2196
642.34	2182
642.466	2241
642.592	2238
642.717	2245
642.843	2248
642.968	2282
643.094	2224
643.219	2290
643.345	2284
643.47	2325
643.596	2317
643.721	2288
643.847	2361
643.972	2333
644.098	2338
644.223	2353
644.349	2355
644.474	2341
644.6	2406
644.725	2364
644.85	2448
644.976	2460
645.101	2440
645.227	2448
645.352	2437
645.478	2467
645.603	2437
645.728	2523
645.854	2480
645.979	2521
646.105	2473
646.23	2508
646.355	2556
646.481	2551
646.606	2581
646.731	2642
646.857	2629
646.982	2656
647.107	2645
647.233	2649
647.358	2665
647.483	2707
647.609	2740
647.734	2774
647.859	2761
647.985	2766
648.11	2765
648.235	2851
648.36	2809
648.486	2768
648.611	2868
648.736	2903
648.862	2912
648.987	2988
649.112	2955
649.237	3006
649.362	3003
649.488	2994
649.613	3080
649.738	3097
649.863	3123
649.988	3209
650.114	3161
650.239	3180
650.364	3265
650.489	3218
650.614	3225
650.74	3314
650.865	3338
650.99	3364
651.115	3349
651.24	3389
651.365	3436
651.49	3446
651.615	3482
651.741	3522
651.866	3528
651.991	3526
652.116	3568
652.241	3645
652.366	3653
652.491	3607
652.616	3647
652.741	3689
652.866	3713
652.991	3659
653.116	3777
653.241	3724
653.366	3695
653.491	3733
653.616	3772
653.741	3796
653.866	3787
653.991	3796
654.116	3821
654.241	3849
654.366	3817
654.491	3787
654.616	3841
654.741	3844
654.866	3972
654.991	3976
655.116	4008
655.241	3954
655.366	3982
655.491	4075
655.616	4187
655.741	4268
655.866	4275
655.99	4348
656.115	4372
656.24	4421
656.365	4499
656.49	4602
656.615	4604
656.74	4677
656.865	4717
656.989	4764
657.114	4851
657.239	4919
657.364	4901
657.489	4951
657.614	5100
657.738	5011
657.863	5081
657.988	5105
658.113	5104
658.238	5127
658.362	5180
658.487	5245
658.612	5281
658.737	5279
658.861	5367
658.986	5332
659.111	5400
659.236	5434
659.36	5546
659.485	5575
659.61	5655
659.734	5758
659.859	5825
659.984	5885
660.108	5913
660.233	6050
660.358	6104
660.482	6238
660.607	6421
660.732	6366
660.856	6479
660.981	6508
661.106	6616
661.23	6805
661.355	6798
661.48	6907
661.604	7068
661.729	7103
661.853	7205
661.978	7201
662.103	7308
662.227	7300
662.352	7443
662.476	7529
662.601	7537
662.725	7602
662.85	7655
662.974	7758
663.099	7872
663.224	7805
663.348	7849
663.473	7884
663.597	7887
663.722	8006
663.846	8091
663.971	8149
664.095	8184
664.219	8265
664.344	8309
664.468	8387
664.593	8387
664.717	8593
664.842	8592
664.966	8710
665.091	8730
665.215	8862
665.339	8926
665.464	8916
665.588	8994
665.713	9099
665.837	9175
665.961	9097
666.086	9204
666.21	9348
666.335	9309
666.459	9413
666.583	9518
666.708	9423
666.832	9562
666.956	9529
667.081	9430
667.205	9531
667.329	9621
667.454	9517
667.578	9730
667.702	9685
667.826	9753
667.951	9731
668.075	9740
668.199	9789
668.324	9886
668.448	9959
668.572	9926
668.696	9843
668.82	9987
668.945	9890
669.069	10046
669.193	10203
669.317	10032
669.442	10001
669.566	10220
669.69	10170
669.814	10283
669.938	10390
670.062	10575
670.187	10528
670.311	10696
670.435	10837
670.559	10913
670.683	11064
670.807	11234
670.931	11292
671.056	11468
671.18	11629
671.304	11810
671.428	12053
671.552	12189
671.676	12406
671.8	12481
671.924	12656
672.048	12846
672.172	12905
672.296	13057
672.42	13328
672.544	13538
672.669	13646
672.793	13723
672.917	13971
673.041	14067
673.165	14177
673.289	14502
673.413	14725
673.537	14826
673.661	14999
673.785	15238
673.908	15520
674.032	15577
674.156	15785
674.28	16117
674.404	16271
674.528	16465
674.652	16680
674.776	16822
674.9	17009
675.024	17149
675.148	17262
675.272	17349
675.396	17506
675.519	17632
675.643	17564
675.767	17666
675.891	17493
676.015	17734
676.139	17669
676.263	17585
676.386	17505
676.51	17328
676.634	17443
676.758	17257
676.882	17110
677.005	17182
677.129	16972
677.253	16803
677.377	16676
677.501	16689
677.624	16426
677.748	16360
677.872	16225
677.996	16021
678.119	15881
678.243	15949
678.367	15693
678.491	15499
678.614	15568
678.738	15274
678.862	15247
678.985	15024
679.109	15044
679.233	14860
679.356	14601
679.48	14565
679.604	14472
679.727	14120
679.851	14228
679.975	13924
680.098	13926
680.222	13847
680.346	13631
680.469	13726
680.593	13407
680.716	13370
680.84	13348
680.963	13233
681.087	13114
681.211	13226
681.334	13014
681.458	13006
681.581	12899
681.705	12807
681.828	12953
681.952	12915
682.075	12807
682.199	12968
682.322	12802
682.446	13000
682.569	13119
682.693	13328
682.816	13410
682.94	13431
683.063	13922
683.187	14211
683.31	14700
683.434	15318
683.557	16024
683.681	17257
683.804	18428
683.928	19704
684.051	21418
684.174	23603
684.298	25641
684.421	28164
684.545	30901
684.668	33692
684.791	36432
684.915	39252
685.038	42022
685.161	44473
685.285	46821
685.408	49206
685.531	51479
685.655	53745
685.778	55570
685.901	57308
686.025	59555
686.148	61379
686.271	63353
686.395	64843
686.518	65535
686.641	65535
686.764	65535
686.888	65535
687.011	65535
687.134	65535
687.257	65535
687.381	65535
687.504	65535
687.627	65535
687.75	65535
687.873	65535
687.997	65535
688.12	65535
688.243	65535
688.366	65535
688.489	65535
688.613	65535
688.736	65535
688.859	65535
688.982	65535
689.105	65535
689.228	65535
689.351	65535
689.475	65535
689.598	65535
689.721	65535
689.844	64873
689.967	64074
690.09	62243
690.213	61033
690.336	59534
690.459	58401
690.582	57075
690.705	55866
690.828	54651
690.951	53578
691.074	52440
691.197	51583
691.32	50658
691.443	49896
691.566	49424
691.689	49053
691.812	48553
691.935	48116
692.058	48072
692.181	47686
692.304	47443
692.427	47128
692.55	46804
692.673	46270
692.796	45904
692.919	45605
693.042	45337
693.165	45522
693.288	45068
693.411	45130
693.533	44987
693.656	45010
693.779	44335
693.902	44510
694.025	43803
694.148	43347
694.271	43182
694.393	42758
694.516	42188
694.639	41810
694.762	41351
694.885	41167
695.008	40726
695.13	40442
695.253	40388
695.376	40079
695.499	39982
695.622	39600
695.744	39778
695.867	39307
695.99	39521
696.113	38985
696.235	38938
696.358	39054
696.481	39004
696.603	39389
696.726	39213
696.849	39104
696.972	39276
697.094	39169
697.217	39373
697.34	39163
697.462	39271
697.585	39444
697.708	39291
697.83	39202
697.953	39157
698.075	38873
698.198	38568
698.321	38653
698.443	38611
698.566	38428
698.688	38096
698.811	37860
698.934	37735
699.056	37621
699.179	37562
699.301	37260
699.424	37092
699.546	37163
699.669	36775
699.792	36466
699.914	36276
700.037	35939
700.159	35774
700.282	35249
700.404	35100
700.527	34636
700.649	34328
700.772	34052
700.894	34119
701.016	33559
701.139	33136
701.261	33056
701.384	32352
701.506	32488
701.629	31885
701.751	31645
701.873	31580
701.996	31213
702.118	30881
702.241	30690
702.363	30547
702.485	30754
702.608	30565
702.73	30571
702.853	30582
702.975	30536
703.097	30605
703.22	30560
703.342	30551
703.464	30561
703.587	30525
703.709	30778
703.831	30846
703.953	30982
704.076	31189
704.198	31373
704.32	31470
704.442	31561
704.565	31899
704.687	32015
704.809	31895
704.931	32557
705.054	32633
705.176	32705
705.298	32850
705.42	33143
705.543	33416
705.665	33279
705.787	33840
705.909	33840
706.031	33981
706.025	37292
706.151	37593
706.278	37630
706.404	37669
706.531	37736
706.657	37732
706.783	38054
706.91	37735
707.036	37838
707.162	37730
707.289	37819
707.415	37777
707.541	37968
707.668	37800
707.794	37694
707.92	37315
708.047	37220
708.173	37219
708.299	37059
708.426	36894
708.552	36589
708.678	36400
708.805	36097
708.931	36009
709.057	35572
709.183	35442
709.31	35206
709.436	34920
709.562	34414
709.688	34293
709.815	34180
709.941	33823
710.067	33718
710.193	33197
710.32	33003
710.446	32750
710.572	32294
710.698	32171
710.824	32007
710.951	31797
711.077	31562
711.203	31160
711.329	31101
711.455	30785
711.581	30620
711.708	30496
711.834	30406
711.96	29937
712.086	29854
712.212	29740
712.338	29879
712.464	29584
712.591	29391
712.717	29504
712.843	29460
712.969	29236
713.095	29252
713.221	29032
713.347	29015
713.473	28877
713.599	29204
713.725	29101
713.852	28926
713.978	29230
714.104	29227
714.23	29342
714.356	29347
714.482	29246
714.608	29342
714.734	29590
714.86	29841
714.986	29935
715.112	29891
715.238	30299
715.364	30505
715.49	30874
715.616	30816
715.742	31142
715.868	31334
715.994	31222
716.12	31519
716.246	31486
716.372	31722
716.498	31655
716.624	31727
716.75	31774
716.876	31390
717.002	31199
717.127	31028
717.253	30970
717.379	30440
717.505	30143
717.631	30085
717.757	29541
717.883	29211
718.009	28811
718.135	28059
718.261	27647
718.386	27363
718.512	27021
718.638	26482
718.764	25947
718.89	25420
719.016	25240
719.142	24960
719.267	24458
719.393	24118
719.519	23946
719.645	23689
719.771	23143
719.896	22860
720.022	22737
720.148	22558
720.274	22198
720.4	22106
720.525	21833
720.651	21877
720.777	21704
720.903	21498
721.029	21289
721.154	21431
721.28	21224
721.406	21272
721.531	20932
721.657	20750
721.783	20911
721.909	20594
722.034	20743
722.16	20325
722.286	20128
722.411	19845
722.537	19994
722.663	19821
722.789	19752
722.914	19339
723.04	19130
723.166	18907
723.291	18728
723.417	18483
723.542	18440
723.668	18276
723.794	17856
723.919	17806
724.045	17640
724.171	17391
724.296	17341
724.422	17082
724.547	16976
724.673	16674
724.799	16524
724.924	16532
725.05	16215
725.175	16134
725.301	15834
725.426	15883
725.552	15661
725.678	15573
725.803	15395
725.929	15150
726.054	15128
726.18	15052
726.305	15014
726.431	14804
726.556	14648
726.682	14552
726.807	14508
726.933	14477
727.058	14291
727.184	14202
727.309	14190
727.435	13828
727.56	13912
727.686	13903
727.811	13684
727.937	13648
728.062	13613
728.187	13519
728.313	13422
728.438	13262
728.564	13345
728.689	13098
728.815	13192
728.94	13032
729.065	12870
729.191	12750
729.316	12815
729.441	12729
729.567	12603
729.692	12644
729.818	12507
729.943	12488
730.068	12306
730.194	12330
730.319	12317
730.444	12243
730.57	12116
730.695	12209
730.82	12141
730.946	11930
731.071	11927
731.196	12042
731.321	11895
731.447	11878
731.572	11848
731.697	11876
731.823	11567
731.948	11633
732.073	11536
732.198	11679
732.324	11474
732.449	11466
732.574	11363
732.699	11304
732.825	11270
732.95	11305
733.075	11223
733.2	11278
733.325	11083
733.451	10986
733.576	10988
733.701	11017
733.826	10974
733.951	10918
734.077	10966
734.202	10788
734.327	10832
734.452	10711
734.577	10794
734.702	10641
734.827	10581
734.953	10619
735.078	10570
735.203	10487
735.328	10490
735.453	10415
735.578	10468
735.703	10393
735.828	10296
735.953	10248
736.078	10359
736.203	10262
736.329	10275
736.454	10223
736.579	10110
736.704	10140
736.829	10023
736.954	10136
737.079	10120
737.204	10001
737.329	9928
737.454	10004
737.579	9939
737.704	9918
737.829	9891
737.954	9884
738.079	9910
738.204	9837
738.329	9798
738.454	9682
738.579	9922
738.704	9615
738.829	9621
738.953	9647
739.078	9639
739.203	9569
739.328	9569
739.453	9596
739.578	9473
739.703	9520
739.828	9399
739.953	9460
740.078	9487
740.203	9449
740.327	9379
740.452	9268
740.577	9292
740.702	9273
740.827	9279
740.952	9305
741.077	9255
741.201	9168
741.326	9141
741.451	9100
741.576	9127
741.701	8920
741.825	9003
741.95	8993
742.075	9037
742.2	8879
742.325	8921
742.449	8890
742.574	8796
742.699	8943
742.824	8678
742.948	8641
743.073	8769
743.198	8713
743.323	8755
743.447	8574
743.572	8598
743.697	8527
743.821	8469
743.946	8506
744.071	8433
744.196	8473
744.32	8493
744.445	8421
744.57	8368
744.694	8392
744.819	8392
744.944	8250
745.068	8313
745.193	8195
745.318	8157
745.442	8124
745.567	8125
745.691	8092
745.816	8077
745.941	8058
746.065	8042
746.19	7972
746.314	8008
746.439	7966
746.564	7881
746.688	7910
746.813	7903
746.937	7880
747.062	7768
747.186	7704
747.311	7708
747.435	7683
747.56	7679
747.684	7677
747.809	7605
747.933	7663
748.058	7596
748.182	7550
748.307	7606
748.431	7504
748.556	7466
748.68	7449
748.805	7397
748.929	7471
749.054	7456
749.178	7449
749.303	7328
749.427	7332
749.552	7264
749.676	7252
749.8	7171
749.925	7156
750.049	7204
750.174	7100
750.298	7172
750.422	7131
750.547	7104
750.671	7149
750.796	6953
750.92	7153
751.044	6948
751.169	7041
751.293	6997
751.417	6961
751.542	6950
751.666	6899
751.79	6884
751.915	6841
752.039	6879
752.163	6801
752.287	6817
752.412	6827
752.536	6757
752.66	6741
752.785	6668
752.909	6744
753.033	6632
753.157	6655
753.282	6639
753.406	6562
753.53	6561
753.654	6478
753.779	6500
753.903	6509
754.027	6486
754.151	6508
754.275	6501
754.4	6422
754.524	6451
754.648	6339
754.772	6378
754.896	6291
755.02	6331
755.145	6341
755.269	6337
755.393	6264
755.517	6306
755.641	6208
755.765	6181
755.889	6217
756.013	6191
756.138	6168
756.262	6152
756.386	6161
756.51	6186
756.634	6083
756.758	6075
756.882	6145
757.006	5998
757.13	6027
757.254	5983
757.378	6007
757.502	5992
757.626	5976
757.75	5909
757.874	5928
757.998	5889
758.122	5918
758.246	5814
758.37	5839
758.494	5769
758.618	5873
758.742	5749
758.866	5721
758.99	5753
759.114	5851
759.238	5714
759.362	5801
759.486	5637
759.61	5662
759.734	5684
759.858	5674
759.982	5606
760.106	5559
760.23	5657
760.353	5537
760.477	5536
760.601	5534
760.725	5489
760.849	5481
760.973	5415
761.097	5477
761.221	5504
761.344	5469
761.468	5418
761.592	5442
761.716	5377
761.84	5284
761.963	5308
762.087	5399
762.211	5369
762.335	5367
762.459	5390
762.582	5237
762.706	5245
762.83	5306
762.954	5208
763.078	5277
763.201	5174
763.325	5149
763.449	5138
763.572	5262
763.696	5233
763.82	5164
763.944	5219
764.067	5010
764.191	5114
764.315	5120
764.438	5146
764.562	5105
764.686	5048
764.809	5047
764.933	5026
765.057	4965
765.18	5063
765.304	4879
765.428	4996
765.551	4931
765.675	4918
765.798	4920
765.922	4948
766.046	4926
766.169	4851
766.293	4938
766.416	4860
766.54	4901
766.664	4848
766.787	4885
766.911	4818
767.034	4791
767.158	4787
767.281	4850
767.405	4709
767.528	4816
767.652	4770
767.775	4794
767.899	4810
768.022	4776
768.146	4731
768.269	4689
768.393	4687
768.516	4639
768.64	4688
768.763	4661
768.887	4707
769.01	4627
769.134	4588
769.257	4637
769.381	4555
769.504	4528
769.627	4554
769.751	4527
769.874	4523
769.998	4482
770.121	4430
770.244	4567
770.368	4493
770.491	4458
770.614	4443
770.738	4420
770.861	4389
770.985	4454
771.108	4439
771.231	4325
771.355	4379
771.478	4365
771.601	4311
771.724	4358
771.848	4356
771.971	4320
772.094	4342
772.218	4305
772.341	4377
772.464	4234
772.587	4319
772.711	4213
772.834	4243
772.957	4248
773.08	4232
773.204	4272
773.327	4188
773.45	4167
773.573	4169
773.696	4204
773.82	4149
773.943	4073
774.066	4150
774.189	4097
774.312	4100
774.436	4162
774.559	4170
774.682	4076
774.805	4047
774.928	4113
775.051	4141
775.174	4037
775.297	4047
775.421	4018
775.544	3978
775.667	4000
775.79	4045
775.913	3942
776.036	3961
776.159	3916
776.282	3943
776.405	4015
776.528	3994
776.651	3952
776.774	3922
776.897	3934
777.02	3920
777.143	3860
777.266	3885
777.389	3872
777.512	3790
777.635	3820
777.758	3846
777.881	3763
778.004	3798
778.127	3814
778.25	3824
778.373	3804
778.496	3768
778.619	3701
778.742	3798
778.865	3775
778.988	3760
779.111	3704
779.234	3669
779.357	3693
779.48	3717
779.602	3675
779.725	3696
779.848	3676
779.971	3596
780.094	3594
780.217	3712
780.34	3709
780.462	3659
780.585	3626
780.708	3602
780.831	3598
780.954	3612
781.077	3578
781.199	3599
781.322	3569
781.445	3536
781.568	3555
781.691	3569
781.813	3530
781.936	3507
782.059	3530
782.182	3543
782.304	3490
782.427	3534
782.55	3470
782.672	3539
782.795	3449
782.918	3454
783.041	3415
783.163	3447
783.286	3454
783.409	3443
783.531	3391
783.654	3440
783.777	3398
783.899	3391
784.022	3396
784.145	3393
784.267	3370
784.39	3377
784.512	3356
784.635	3423
784.758	3362
784.88	3357
785.003	3338
785.125	3336
785.248	3308
785.371	3314
785.493	3317
785.616	3370
785.738	3280
785.861	3263
785.983	3211
786.106	3256
786.228	3281
786.351	3256
786.473	3307
786.596	3200
786.718	3238
786.841	3209
786.963	3189
787.086	3224
787.208	3156
787.331	3209
787.453	3186
787.576	3145
787.698	3175
787.821	3169
787.943	3213
788.066	3138
788.188	3150
788.31	3178
788.433	3165
788.555	3112
788.678	3095
788.8	3052
788.922	3127
789.045	3110
789.167	3062
789.289	3057
789.412	3073
789.534	3105
789.656	3089
789.779	3025
789.901	3044
790.023	3088
790.146	3051
790.268	3033
790.39	3034
790.513	3097
790.635	3064
790.757	3046
790.879	2995
791.002	3040
791.124	3047
791.246	2971
791.368	3020
791.491	3005
791.613	3008
791.735	2916
791.857	2981
791.98	2991
792.102	2924
792.224	2981
792.346	2960
792.468	3000
792.59	2991
792.713	2939
792.835	2973
792.957	2955
793.079	3007
793.201	2955
793.323	2949
793.446	2902
793.568	2935
793.69	2935
793.812	2934
793.934	2952
794.056	2874
794.178	2896
794.3	2880
794.422	2927
794.544	2917
794.666	2925
794.788	2889
794.91	2870
795.033	2841
795.155	2878
795.277	2897
795.399	2842
795.521	2844
795.643	2850
795.765	2835
795.887	2812
796.009	2792
796.131	2818
796.253	2833
796.374	2847
796.496	2780
796.618	2810
796.74	2781
796.862	2819
796.984	2766
797.106	2770
797.228	2796
797.35	2763
797.472	2816
797.594	2790
797.716	2749
797.837	2786
797.959	2727
798.081	2738
798.203	2784
798.325	2785
798.447	2747
798.569	2712
798.69	2729
798.812	2732
798.934	2751
799.056	2737
799.178	2726
799.299	2728
799.421	2675
799.543	2745
799.665	2730
799.787	2701
799.908	2753
800.03	2653
800.152	2719
800.274	2709
800.395	2728
800.517	2722
800.639	2695
800.76	2665
800.882	2638
801.004	2677
801.126	2675
801.247	2688
801.369	2651
801.491	2677
801.612	2654
801.734	2674
801.856	2673
801.977	2624
802.099	2654
802.22	2632
802.342	2619
802.464	2642
802.585	2632
802.707	2599
802.828	2610
802.95	2648
803.072	2620
803.193	2581
803.315	2653
803.436	2616
803.558	2616
803.679	2583
803.801	2619
803.922	2554
804.044	2602
804.165	2607
804.287	2549
804.408	2577
804.53	2639
804.651	2541
804.773	2573
804.894	2580
805.016	2556
805.137	2611
805.259	2554
805.38	2590
805.502	2592
805.623	2506
805.745	2537
805.866	2572
805.987	2577
806.109	2536
806.23	2546
806.352	2554
806.473	2550
806.594	2509
806.716	2492
806.837	2509
806.958	2507
807.08	2513
807.201	2502
807.322	2506
807.444	2488
807.565	2491
807.686	2491
807.808	2489
807.929	2501
808.05	2513
808.171	2506
808.293	2476
808.414	2482
808.535	2494
808.657	2496
808.778	2458
808.899	2421
809.02	2468
809.141	2456
809.263	2454
809.384	2470
809.505	2414
809.626	2466
809.747	2427
809.869	2455
809.99	2450
810.111	2450
810.232	2416
810.353	2402
810.474	2447
810.596	2396
810.717	2445
810.838	2383
810.959	2402
811.08	2434
811.201	2423
811.322	2437
811.443	2425
811.564	2410
811.686	2381
811.807	2389
811.928	2405
812.049	2436
812.17	2386
812.291	2393
812.412	2388
812.533	2390
812.654	2367
812.775	2371
812.896	2380
813.017	2364
813.138	2351
813.259	2370
813.38	2369
813.501	2377
813.622	2351
813.743	2361
813.864	2355
813.985	2342
814.105	2357
814.226	2361
814.347	2333
814.468	2349
814.589	2316
814.71	2359
814.831	2349
814.952	2369
815.073	2311
815.194	2351
815.314	2368
815.435	2290
815.556	2302
815.677	2272
815.798	2322
815.919	2296
816.039	2313
816.16	2308
816.281	2311
816.402	2280
816.523	2291
816.643	2286
816.764	2276
816.885	2275
817.006	2302
817.126	2264
817.247	2272
817.368	2298
817.489	2292
817.609	2300
817.73	2294
817.851	2330
817.971	2302
818.092	2274
818.213	2271
818.333	2248
818.454	2294
818.575	2270
818.695	2234
818.816	2254
818.937	2234
819.057	2207
819.178	2285
819.299	2276
819.419	2246
819.54	2292
819.66	2222
819.781	2255
819.902	2266
820.022	2232
820.143	2252
820.263	2253
820.384	2222
820.504	2225
820.625	2294
820.745	2256
820.866	2218
820.987	2234
821.107	2237
821.228	2220
821.348	2205
821.469	2223
821.589	2212
821.709	2230
821.83	2248
821.95	2219
822.071	2218
822.191	2235
822.312	2235
822.432	2215
822.553	2191
822.673	2205
822.793	2178
822.914	2177
823.034	2206
823.155	2203
823.275	2187
823.395	2205
823.516	2150
823.636	2194
823.756	2182
823.877	2182
823.997	2173
824.117	2172
824.238	2176
824.358	2160
824.478	2184
824.599	2113
824.719	2169
824.839	2165
824.959	2148
825.08	2170
825.2	2149
825.32	2162
825.44	2148
825.561	2184
825.681	2169
825.801	2129
825.921	2114
826.042	2179
826.162	2171
826.282	2156
826.402	2117
826.522	2141
826.643	2174
826.763	2142
826.883	2169
827.003	2107
827.123	2127
827.243	2114
827.363	2152
827.484	2142
827.604	2129
827.724	2170
827.844	2126
827.964	2145
828.084	2116
828.204	2135
828.324	2135
828.444	2145
828.564	2110
828.684	2121
828.804	2130
828.924	2120
829.044	2144
829.164	2132
829.284	2077
829.404	2129
829.524	2152
829.644	2102
829.764	2114
829.884	2098
830.004	2087
830.124	2117
830.244	2108
830.364	2075
830.484	2102
830.604	2102
830.724	2083
830.844	2093
830.964	2117
830.961	2153
831.086	2112
831.21	2161
831.334	2178
831.459	2138
831.583	2163
831.707	2135
831.832	2128
831.956	2147
832.08	2173
832.204	2154
832.329	2135
832.453	2124
832.577	2146
832.701	2145
832.826	2117
832.95	2127
833.074	2140
833.198	2151
833.323	2128
833.447	2094
833.571	2125
833.695	2120
833.819	2125
833.944	2084
834.068	2146
834.192	2113
834.316	2106
834.44	2110
834.564	2106
834.689	2140
834.813	2115
834.937	2093
835.061	2108
835.185	2120
835.309	2094
835.433	2097
835.558	2069
835.682	2084
835.806	2116
835.93	2116
836.054	2095
836.178	2062
836.302	2092
836.426	2063
836.55	2103
836.674	2100
836.798	2069
836.922	2132
837.046	2078
837.17	2095
837.295	2088
837.419	2063
837.543	2012
837.667	2088
837.791	2073
837.915	2071
838.039	2098
838.163	2067
838.287	2056
838.411	2034
838.535	2063
838.659	2073
838.782	2066
838.906	2066
839.03	2043
839.154	2078
839.278	2023
839.402	2045
839.526	2057
839.65	2025
839.774	2035
839.898	2031
840.022	2061
840.146	2012
840.27	2067
840.393	2062
840.517	2031
840.641	2037
840.765	2053
840.889	2037
841.013	2065
841.137	2004
841.261	2044
841.384	2037
841.508	2061
841.632	2051
841.756	2018
841.88	2032
842.004	2053
842.127	2061
842.251	2023
842.375	2017
842.499	1998
842.622	1994
842.746	2022
842.87	2074
842.994	1978
843.118	2034
843.241	2020
843.365	2031
843.489	2000
843.613	2007
843.736	2006
843.86	2003
843.984	2007
844.107	2012
844.231	2000
844.355	2012
844.479	1997
844.602	1962
844.726	1988
844.85	1975
844.973	1995
845.097	2029
845.221	2007
845.344	1973
845.468	2032
845.592	2029
845.715	1977
845.839	1968
845.962	1999
846.086	1977
846.21	1994
846.333	2010
846.457	2034
846.58	1934
846.704	2011
846.828	1977
846.951	1967
847.075	1986
847.198	1965
847.322	1977
847.445	1993
847.569	1939
847.693	1959
847.816	2000
847.94	1997
848.063	1948
848.187	1976
848.31	1971
848.434	1965
848.557	1989
848.681	2016
848.804	1946
848.928	1972
849.051	1961
849.175	1956
849.298	1979
849.421	1976
849.545	1980
849.668	1978
849.792	1951
849.915	1941
850.039	1941
850.162	1919
850.286	1983
850.409	1987
850.532	1934
850.656	1922
850.779	1923
850.902	1939
851.026	1930
851.149	1938
851.273	1955
851.396	1961
851.519	1958
851.643	1982
851.766	1955
851.889	1963
852.013	1956
852.136	1958
852.259	1969
852.383	1939
852.506	1936
852.629	1915
852.753	1922
852.876	1913
852.999	1924
853.122	1955
853.246	1916
853.369	1930
853.492	1945
853.615	1911
853.739	1922
853.862	1890
853.985	1905
854.108	1907
854.232	1929
854.355	1968
854.478	1915
854.601	1893
854.724	1900
854.848	1917
854.971	1935
855.094	1922
855.217	1934
855.34	1901
855.463	1923
855.587	1902
855.71	1913
855.833	1913
855.956	1914
856.079	1899
856.202	1928
856.325	1900
856.449	1900
856.572	1910
856.695	1887
856.818	1909
856.941	1904
857.064	1916
857.187	1903
857.31	1889
857.433	1890
857.556	1907
857.679	1879
857.802	1882
857.925	1882
858.048	1905
858.171	1924
858.294	1919
858.417	1866
858.54	1901
858.663	1889
858.786	1897
858.909	1898
859.032	1848
859.155	1897
859.278	1870
859.401	1893
859.524	1876
859.647	1836
859.77	1917
859.893	1908
860.016	1873
860.139	1889
860.262	1860
860.385	1876
860.508	1877
860.631	1847
860.754	1920
860.876	1909
860.999	1872
861.122	1897
861.245	1884
861.368	1849
861.491	1867
861.614	1856
861.736	1849
861.859	1874
861.982	1858
862.105	1828
862.228	1860
862.351	1849
862.473	1865
862.596	1851
862.719	1893
862.842	1889
862.965	1872
863.087	1851
863.21	1871
863.333	1851
863.456	1839
863.578	1837
863.701	1847
863.824	1824
863.947	1855
864.069	1841
864.192	1853
864.315	1849
864.438	1861
864.56	1841
864.683	1844
864.806	1813
864.928	1848
865.051	1843
865.174	1826
865.296	1884
865.419	1807
865.542	1861
865.664	1847
865.787	1873
865.91	1818
866.032	1825
866.155	1841
866.277	1875
866.4	1845
866.523	1834
866.645	1826
866.768	1828
866.89	1816
867.013	1806
867.136	1831
867.258	1844
867.381	1847
867.503	1820
867.626	1846
867.748	1855
867.871	1811
867.993	1796
868.116	1816
868.238	1827
868.361	1863
868.483	1836
868.606	1834
868.728	1845
868.851	1833
868.973	1812
869.096	1829
869.218	1829
869.341	1822
869.463	1844
869.586	1830
869.708	1858
869.83	1792
869.953	1812
870.075	1787
870.198	1778
870.32	1817
870.442	1792
870.565	1821
870.687	1764
870.81	1780
870.932	1785
871.054	1802
871.177	1799
871.299	1796
871.421	1804
871.544	1777
871.666	1806
871.788	1782
871.911	1827
872.033	1788
872.155	1803
872.278	1795
872.4	1826
872.522	1823
872.645	1819
872.767	1770
872.889	1778
873.011	1784
873.134	1780
873.256	1763
873.378	1807
873.5	1775
873.623	1809
873.745	1806
873.867	1804
873.989	1781
874.111	1784
874.234	1781
874.356	1757
874.478	1808
874.6	1768
874.722	1788
874.845	1750
874.967	1765
875.089	1776
875.211	1806
875.333	1769
875.455	1789
875.577	1744
875.7	1801
875.822	1761
875.944	1752
876.066	1783
876.188	1771
876.31	1777
876.432	1773
876.554	1792
876.676	1783
876.798	1793
876.92	1721
877.042	1760
877.164	1786
877.287	1756
877.409	1757
877.531	1784
877.653	1769
877.775	1748
877.897	1745
878.019	1758
878.141	1731
878.263	1773
878.385	1758
878.507	1735
878.628	1760
878.75	1774
878.872	1795
878.994	1733
879.116	1773
879.238	1750
879.36	1756
879.482	1753
879.604	1769
879.726	1740
879.848	1744
879.97	1755
880.092	1764
880.213	1745
880.335	1729
880.457	1758
880.579	1702
880.701	1767
880.823	1714
880.945	1726
881.066	1741
881.188	1738
881.31	1723
881.432	1760
881.554	1730
881.675	1709
881.797	1704
881.919	1769
882.041	1728
882.163	1734
882.284	1754
882.406	1714
882.528	1733
882.65	1725
882.771	1740
882.893	1700
883.015	1740
883.137	1734
883.258	1706
883.38	1742
883.502	1708
883.623	1710
883.745	1726
883.867	1746
883.988	1744
884.11	1717
884.232	1732
884.353	1690
884.475	1691
884.597	1747
884.718	1693
884.84	1711
884.962	1694
885.083	1707
885.205	1753
885.326	1700
885.448	1684
885.57	1708
885.691	1697
885.813	1703
885.934	1714
886.056	1689
886.177	1700
886.299	1688
886.421	1701
886.542	1710
886.664	1682
886.785	1697
886.907	1703
887.028	1691
887.15	1712
887.271	1691
887.393	1694
887.514	1714
887.636	1725
887.757	1679
887.879	1692
888	1703
888.121	1689
888.243	1690
888.364	1725
888.486	1694
888.607	1730
888.729	1677
888.85	1679
888.971	1671
889.093	1654
889.214	1663
889.336	1690
889.457	1683
889.578	1701
889.7	1681
889.821	1675
889.942	1694
890.064	1698
890.185	1676
890.306	1653
890.428	1683
890.549	1656
890.67	1643
890.792	1675
890.913	1668
891.034	1694
891.156	1645
891.277	1679
891.398	1641
891.519	1684
891.641	1681
891.762	1676
891.883	1653
892.004	1671
892.126	1663
892.247	1663
892.368	1622
892.489	1656
892.61	1652
892.732	1675
892.853	1615
892.974	1680
893.095	1644
893.216	1617
893.337	1655
893.459	1671
893.58	1663
893.701	1654
893.822	1662
893.943	1644
894.064	1659
894.185	1652
894.306	1653
894.428	1659
894.549	1603
894.67	1639
894.791	1607
894.912	1618
895.033	1631
895.154	1638
895.275	1625
895.396	1660
895.517	1624
895.638	1633
895.759	1620
895.88	1624
896.001	1623
896.122	1612
896.243	1622
896.364	1615
896.485	1614
896.606	1638
896.727	1656
896.848	1622
896.969	1609
897.09	1616
897.211	1626
897.332	1627
897.453	1580
897.574	1618
897.695	1646
897.816	1622
897.936	1631
898.057	1622
898.178	1599
898.299	1595
898.42	1615
898.541	1606
898.662	1608
898.783	1626
898.903	1595
899.024	1592
899.145	1601
899.266	1580
899.387	1617
899.507	1609
899.628	1613
899.749	1589
899.87	1595
899.991	1563
900.111	1577
900.232	1578
900.353	1615
900.474	1606
900.594	1578
900.715	1590
900.836	1605
900.957	1567
901.077	1569
901.198	1602
901.319	1595
901.439	1602
901.56	1590
901.681	1569
901.802	1560
901.922	1558
902.043	1587
902.164	1596
902.284	1598
902.405	1602
902.525	1571
902.646	1570
902.767	1577
902.887	1554
903.008	1567
903.129	1569
903.249	1553
903.37	1574
903.49	1554
903.611	1567
903.731	1570
903.852	1548
903.973	1565
904.093	1556
904.214	1578
904.334	1550
904.455	1563
904.575	1555
904.696	1545
904.816	1560
904.937	1544
905.057	1579
905.178	1555
905.298	1564
905.419	1567
905.539	1560
905.66	1582
905.78	1541
905.9	1594
906.021	1513
906.141	1557
906.262	1525
906.382	1541
906.503	1531
906.623	1516
906.743	1555
906.864	1508
906.984	1561
907.104	1544
907.225	1538
907.345	1545
907.466	1540
907.586	1542
907.706	1549
907.827	1508
907.947	1521
908.067	1515
908.188	1524
908.308	1541
908.428	1524
908.548	1541
908.669	1541
908.789	1519
908.909	1512
909.029	1498
909.15	1532
909.27	1516
909.39	1525
909.51	1528
909.631	1524
909.751	1526
909.871	1516
909.991	1541
910.111	1511
910.232	1486
910.352	1502
910.472	1498
910.592	1502
910.712	1483
910.832	1496
910.953	1502
911.073	1493
911.193	1499
911.313	1519
911.433	1492
911.553	1518
911.673	1514
911.793	1484
911.914	1485
912.034	1474
912.154	1464
912.274	1476
912.394	1494
912.514	1495
912.634	1503
912.754	1501
912.874	1490
912.994	1462
913.114	1474
913.234	1475
913.354	1480
913.474	1469
913.594	1451
913.714	1475
913.834	1470
913.954	1483
914.074	1470
914.194	1478
914.314	1443
914.434	1463
914.554	1451
914.674	1487
914.794	1471
914.913	1482
915.033	1475
915.153	1477
915.273	1493
915.393	1456
915.513	1483
915.633	1497
915.753	1457
915.872	1448
915.992	1455
916.112	1435
916.232	1458
916.352	1470
916.472	1429
916.591	1435
916.711	1449
916.831	1473
916.951	1457
917.071	1436
917.19	1476
917.31	1454
917.43	1468
917.55	1461
917.669	1444
917.789	1442
917.909	1439
918.029	1465
918.148	1456
918.268	1444
918.388	1433
918.507	1435
918.627	1466
918.747	1456
918.866	1476
918.986	1428
919.106	1440
919.225	1448
919.345	1438
919.465	1433
919.584	1444
919.704	1445
919.824	1461
919.943	1440
920.063	1429
920.182	1439
920.302	1452
920.421	1430
920.541	1454
920.661	1462
920.78	1452
920.9	1445
921.019	1443
921.139	1452
921.258	1445
921.378	1450
921.497	1432
921.617	1447
921.736	1444
921.856	1420
921.975	1432
922.095	1443
922.214	1438
922.334	1421
922.453	1447
922.573	1452
922.692	1457
922.812	1435
922.931	1430
923.05	1450
923.17	1432
923.289	1432
923.409	1424
923.528	1450
923.647	1431
923.767	1439
923.886	1444
924.005	1405
924.125	1446
924.244	1413
924.363	1426
924.483	1438
924.602	1439
924.721	1433
924.841	1414
924.96	1462
925.079	1447
925.199	1427
925.318	1399
925.437	1429
925.556	1418
925.676	1426
925.795	1426
925.914	1404
926.033	1436
926.153	1415
926.272	1401
926.391	1431
926.51	1426
926.629	1431
926.749	1410
926.868	1402
926.987	1410
927.106	1406
927.225	1419
927.345	1411
927.464	1435
927.583	1418
927.702	1407
927.821	1408
927.94	1399
928.059	1406
928.178	1400
928.297	1424
928.417	1391
928.536	1401
928.655	1404
928.774	1405
928.893	1440
929.012	1414
929.131	1399
929.25	1411
929.369	1428
929.488	1391
929.607	1393
929.726	1410
929.845	1372
929.964	1388
930.083	1424
930.202	1380
930.321	1386
930.44	1421
930.559	1391
930.678	1386
930.797	1366
930.916	1401
931.035	1414
931.154	1389
931.272	1385
931.391	1413
931.51	1401
931.629	1389
931.748	1360
931.867	1403
931.986	1399
932.105	1400
932.223	1379
932.342	1380
932.461	1375
932.58	1387
932.699	1405
932.818	1375
932.936	1385
933.055	1370
933.174	1379
933.293	1363
933.412	1370
933.53	1398
933.649	1390
933.768	1367
933.887	1379
934.005	1389
934.124	1367
934.243	1405
934.361	1365
934.48	1365
934.599	1377
934.718	1408
934.836	1373
934.955	1392
935.074	1389
935.192	1362
935.311	1377
935.43	1386
935.548	1359
935.667	1379
935.785	1364
935.904	1387
936.023	1399
936.141	1376
936.26	1361
936.378	1392
936.497	1365
936.616	1372
936.734	1392
936.853	1397
936.971	1375
937.09	1362
937.208	1373
937.327	1381
937.445	1350
937.564	1362
937.682	1341
937.801	1382
937.919	1357
938.038	1375
938.156	1368
938.275	1396
938.393	1351
938.512	1371
938.63	1343
938.749	1356
938.867	1340
938.986	1367
939.104	1345
939.222	1365
939.341	1353
939.459	1357
939.577	1353
939.696	1380
939.814	1351
939.933	1368
940.051	1368
940.169	1343
940.288	1346
940.406	1355
940.524	1337
940.643	1343
940.761	1373
940.879	1332
940.998	1363
941.116	1345
941.234	1350
941.352	1334
941.471	1349
941.589	1330
941.707	1323
941.825	1363
941.944	1364
942.062	1341
942.18	1341
942.298	1357
942.416	1367
942.535	1327
942.653	1328
942.771	1339
942.889	1340
943.007	1322
943.125	1353
943.244	1331
943.362	1312
943.48	1326
943.598	1356
943.716	1307
943.834	1337
943.952	1340
944.07	1362
944.189	1348
944.307	1331
944.425	1352
944.543	1334
944.661	1328
944.779	1344
944.897	1356
945.015	1323
945.133	1325
945.251	1316
945.369	1323
945.487	1310
945.605	1308
945.723	1314
945.841	1311
945.959	1309
946.077	1329
946.195	1316
946.313	1331
946.431	1307
946.549	1337
946.667	1331
946.785	1311
946.902	1317
947.02	1321
947.138	1287
947.256	1312
947.374	1331
947.492	1326
947.61	1317
947.728	1307
947.845	1315
947.963	1314
948.081	1305
948.199	1334
948.317	1291
948.435	1295
948.552	1325
948.67	1299
948.788	1309
948.906	1289
949.024	1318
949.141	1303
949.259	1286
949.377	1287
949.495	1301
949.612	1302
949.73	1302
949.848	1317
949.965	1293
950.083	1316
950.201	1294
950.318	1295
950.436	1308
950.554	1292
950.672	1277
950.789	1289
950.907	1307
951.024	1306
951.142	1284
951.26	1297
951.377	1290
951.495	1279
951.613	1295
951.73	1305
951.848	1290
951.965	1296
952.083	1307
952.2	1302
952.318	1294
952.436	1281
952.553	1301
952.671	1301
952.788	1288
952.906	1299
953.023	1275
953.141	1275
953.258	1282
953.376	1274
953.493	1279
953.611	1293
953.728	1286
953.845	1288
953.963	1289
954.08	1269
954.198	1265

