Wavelength	PL390-MAO-Cr-Mau7
nm	Counts
449.342	1021
449.472	1017
449.602	1022
449.732	1020
449.862	1019
449.992	1017
450.122	1028
450.252	1021
450.382	1016
450.512	1012
450.642	1024
450.772	1014
450.902	1020
451.032	1023
451.162	1017
451.292	1018
451.422	1029
451.552	1016
451.682	1021
451.812	1020
451.942	1018
452.071	1026
452.201	1021
452.331	1019
452.461	1026
452.591	1022
452.721	1016
452.851	1018
452.981	1018
453.111	1022
453.241	1025
453.371	1019
453.501	1026
453.63	1017
453.76	1021
453.89	1021
454.02	1018
454.15	1023
454.28	1017
454.41	1011
454.539	1015
454.669	1015
454.799	1019
454.929	1018
455.059	1013
455.189	1018
455.318	1022
455.448	1022
455.578	1014
455.708	1019
455.838	1018
455.968	1017
456.097	1017
456.227	1019
456.357	1020
456.487	1021
456.617	1020
456.746	1022
456.876	1030
457.006	1025
457.136	1022
457.265	1014
457.395	1021
457.525	1017
457.655	1019
457.784	1024
457.914	1025
458.044	1027
458.174	1021
458.303	1024
458.433	1019
458.563	1017
458.692	1019
458.822	1024
458.952	1017
459.081	1017
459.211	1017
459.341	1020
459.47	1019
459.6	1018
459.73	1020
459.86	1027
459.989	1022
460.119	1023
460.248	1022
460.378	1021
460.508	1017
460.637	1025
460.767	1016
460.897	1024
461.026	1016
461.156	1024
461.286	1020
461.415	1023
461.545	1022
461.674	1015
461.804	1020
461.933	1023
462.063	1021
462.193	1012
462.322	1024
462.452	1026
462.581	1019
462.711	1014
462.84	1018
462.97	1021
463.1	1014
463.229	1018
463.359	1016
463.488	1024
463.618	1021
463.747	1028
463.877	1019
464.006	1020
464.136	1015
464.265	1025
464.395	1018
464.524	1021
464.654	1020
464.783	1016
464.913	1019
465.042	1017
465.172	1018
465.301	1017
465.431	1022
465.56	1024
465.69	1020
465.819	1035
465.948	1021
466.078	1023
466.207	1024
466.337	1028
466.466	1021
466.596	1023
466.725	1016
466.854	1022
466.984	1025
467.113	1015
467.243	1024
467.372	1024
467.501	1023
467.631	1024
467.76	1015
467.889	1015
468.019	1019
468.148	1019
468.278	1016
468.407	1024
468.536	1029
468.666	1021
468.795	1026
468.924	1021
469.054	1021
469.183	1020
469.312	1021
469.442	1026
469.571	1031
469.7	1026
469.829	1016
469.959	1026
470.088	1028
470.217	1024
470.347	1028
470.476	1019
470.605	1021
470.734	1025
470.864	1018
470.993	1024
471.122	1021
471.251	1022
471.381	1021
471.51	1023
471.639	1021
471.768	1025
471.898	1020
472.027	1023
472.156	1022
472.285	1021
472.414	1018
472.544	1022
472.673	1026
472.802	1025
472.931	1018
473.06	1015
473.189	1025
473.319	1025
473.448	1018
473.577	1022
473.706	1028
473.835	1022
473.964	1025
474.094	1022
474.223	1022
474.352	1019
474.481	1028
474.61	1020
474.739	1025
474.868	1032
474.997	1024
475.126	1024
475.256	1018
475.385	1022
475.514	1020
475.643	1024
475.772	1016
475.901	1026
476.03	1022
476.159	1029
476.288	1027
476.417	1024
476.546	1028
476.675	1026
476.804	1023
476.933	1023
477.062	1021
477.191	1020
477.32	1024
477.449	1019
477.578	1024
477.707	1023
477.836	1022
477.965	1026
478.094	1030
478.223	1030
478.352	1024
478.481	1030
478.61	1025
478.739	1023
478.868	1028
478.997	1026
479.126	1030
479.255	1032
479.384	1035
479.513	1026
479.642	1028
479.771	1024
479.9	1031
480.028	1018
480.157	1026
480.286	1019
480.415	1030
480.544	1027
480.673	1021
480.802	1021
480.931	1024
481.06	1030
481.188	1021
481.317	1020
481.446	1026
481.575	1026
481.704	1025
481.833	1032
481.961	1030
482.09	1028
482.219	1022
482.348	1031
482.477	1025
482.606	1022
482.734	1025
482.863	1020
482.992	1034
483.121	1024
483.249	1027
483.378	1035
483.507	1029
483.636	1032
483.765	1023
483.893	1029
484.022	1019
484.151	1027
484.28	1032
484.408	1029
484.537	1032
484.666	1025
484.794	1018
484.923	1028
485.052	1025
485.181	1024
485.309	1021
485.438	1022
485.567	1028
485.695	1026
485.824	1030
485.953	1025
486.081	1028
486.21	1029
486.339	1031
486.467	1029
486.596	1029
486.725	1024
486.853	1027
486.982	1031
487.11	1030
487.239	1029
487.368	1041
487.496	1035
487.625	1030
487.754	1028
487.882	1028
488.011	1032
488.139	1029
488.268	1026
488.396	1027
488.525	1036
488.654	1033
488.782	1029
488.911	1029
489.039	1029
489.168	1036
489.296	1021
489.425	1029
489.553	1030
489.682	1022
489.81	1032
489.939	1031
490.067	1027
490.196	1023
490.324	1037
490.453	1025
490.581	1025
490.71	1032
490.838	1029
490.967	1025
491.095	1025
491.224	1026
491.352	1033
491.481	1034
491.609	1034
491.738	1027
491.866	1033
491.994	1028
492.123	1038
492.251	1023
492.38	1031
492.508	1027
492.636	1035
492.765	1029
492.893	1022
493.022	1032
493.15	1026
493.278	1026
493.407	1024
493.535	1022
493.663	1028
493.792	1029
493.92	1029
494.049	1025
494.177	1023
494.305	1030
494.434	1033
494.562	1035
494.69	1032
494.818	1030
494.947	1030
495.075	1026
495.203	1029
495.332	1027
495.46	1025
495.588	1048
495.716	1019
495.845	1033
495.973	1036
496.101	1028
496.23	1028
496.358	1038
496.486	1029
496.614	1031
496.742	1031
496.871	1028
496.999	1038
497.127	1029
497.255	1040
497.384	1029
497.512	1034
497.64	1032
497.768	1029
497.896	1028
498.024	1032
498.153	1025
498.281	1030
498.409	1033
498.537	1034
498.665	1025
498.793	1037
498.922	1030
499.05	1035
499.178	1027
499.306	1024
499.434	1040
499.562	1027
499.69	1035
499.818	1032
499.947	1028
500.075	1032
500.203	1034
500.331	1024
500.459	1023
500.587	1033
500.715	1032
500.843	1024
500.971	1041
501.099	1032
501.227	1028
501.355	1033
501.483	1032
501.611	1032
501.739	1029
501.867	1026
501.995	1039
502.123	1033
502.251	1041
502.379	1028
502.507	1028
502.635	1023
502.763	1036
502.891	1035
503.019	1035
503.147	1030
503.275	1036
503.403	1029
503.531	1033
503.659	1031
503.787	1034
503.915	1030
504.043	1036
504.171	1039
504.299	1034
504.426	1035
504.554	1029
504.682	1032
504.81	1040
504.938	1029
505.066	1030
505.194	1032
505.322	1029
505.449	1036
505.577	1029
505.705	1039
505.833	1031
505.961	1029
506.089	1029
506.217	1032
506.344	1030
506.472	1024
506.6	1030
506.728	1039
506.856	1034
506.983	1031
507.111	1033
507.239	1035
507.367	1028
507.495	1028
507.622	1037
507.75	1033
507.878	1036
508.006	1041
508.133	1028
508.261	1026
508.389	1040
508.516	1029
508.644	1037
508.772	1033
508.9	1030
509.027	1017
509.155	1032
509.283	1033
509.41	1036
509.538	1030
509.666	1029
509.793	1028
509.921	1037
510.049	1043
510.176	1043
510.304	1036
510.432	1029
510.559	1035
510.687	1028
510.815	1037
510.942	1031
511.07	1034
511.197	1031
511.325	1038
511.453	1034
511.58	1029
511.708	1036
511.835	1032
511.963	1026
512.091	1034
512.218	1029
512.346	1034
512.473	1036
512.601	1037
512.728	1038
512.856	1036
512.983	1036
513.111	1030
513.238	1040
513.366	1033
513.494	1041
513.621	1049
513.749	1030
513.876	1040
514.003	1028
514.131	1030
514.258	1038
514.386	1035
514.513	1031
514.641	1029
514.768	1029
514.896	1026
515.023	1032
515.151	1026
515.278	1033
515.405	1032
515.533	1031
515.66	1035
515.788	1038
515.915	1031
516.042	1036
516.17	1037
516.297	1040
516.425	1039
516.552	1033
516.679	1031
516.807	1037
516.934	1034
517.061	1032
517.189	1042
517.316	1032
517.443	1041
517.571	1032
517.698	1032
517.825	1037
517.953	1040
518.08	1036
518.207	1034
518.335	1033
518.462	1031
518.589	1024
518.716	1031
518.844	1030
518.971	1035
519.098	1033
519.226	1030
519.353	1032
519.48	1037
519.607	1034
519.734	1035
519.862	1024
519.989	1029
520.116	1032
520.243	1032
520.371	1036
520.498	1034
520.625	1046
520.752	1032
520.879	1036
521.006	1030
521.134	1036
521.261	1042
521.388	1026
521.515	1028
521.642	1037
521.769	1036
521.896	1036
522.024	1030
522.151	1032
522.278	1029
522.405	1033
522.532	1031
522.659	1033
522.786	1029
522.913	1037
523.04	1041
523.167	1043
523.295	1036
523.422	1033
523.549	1037
523.676	1033
523.803	1032
523.93	1036
524.057	1034
524.184	1032
524.311	1032
524.438	1035
524.565	1036
524.692	1036
524.819	1032
524.946	1030
525.073	1035
525.2	1036
525.327	1044
525.454	1039
525.581	1042
525.708	1036
525.835	1030
525.962	1037
526.088	1039
526.215	1034
526.342	1029
526.469	1026
526.596	1034
526.723	1042
526.85	1034
526.977	1031
527.104	1029
527.231	1032
527.358	1037
527.484	1033
527.611	1037
527.738	1031
527.865	1038
527.992	1038
528.119	1040
528.246	1030
528.372	1040
528.499	1038
528.626	1043
528.753	1041
528.88	1031
529.006	1033
529.133	1036
529.26	1037
529.387	1031
529.514	1031
529.64	1030
529.767	1039
529.894	1039
530.021	1029
530.147	1032
530.274	1038
530.401	1034
530.528	1037
530.654	1032
530.781	1035
530.908	1034
531.034	1038
531.161	1038
531.288	1031
531.414	1031
531.541	1039
531.668	1039
531.795	1038
531.921	1030
532.048	1028
532.174	1038
532.301	1036
532.428	1037
532.554	1034
532.681	1032
532.808	1032
532.934	1038
533.061	1043
533.187	1034
533.314	1034
533.441	1038
533.567	1041
533.694	1033
533.82	1036
533.947	1031
534.074	1038
534.2	1041
534.327	1044
534.453	1029
534.58	1038
534.706	1035
534.833	1034
534.959	1034
535.086	1029
535.212	1038
535.339	1033
535.465	1033
535.592	1032
535.718	1040
535.845	1033
535.971	1039
536.098	1029
536.224	1043
536.351	1029
536.477	1032
536.604	1032
536.73	1039
536.856	1028
536.983	1036
537.109	1028
537.236	1033
537.362	1038
537.488	1034
537.615	1040
537.741	1032
537.868	1044
537.994	1033
538.12	1034
538.247	1039
538.373	1030
538.499	1035
538.626	1046
538.752	1043
538.878	1037
539.005	1027
539.131	1040
539.257	1027
539.384	1035
539.51	1038
539.636	1056
539.763	1035
539.889	1039
540.015	1030
540.141	1038
540.268	1031
540.394	1032
540.52	1031
540.646	1038
540.773	1036
540.899	1035
541.025	1031
541.151	1036
541.278	1034
541.404	1038
541.53	1036
541.656	1032
541.782	1035
541.909	1027
542.035	1033
542.161	1031
542.287	1041
542.413	1032
542.539	1035
542.665	1039
542.792	1032
542.918	1034
543.044	1035
543.17	1028
543.296	1033
543.422	1034
543.548	1028
543.674	1031
543.801	1039
543.927	1039
544.053	1037
544.179	1029
544.305	1029
544.431	1034
544.557	1042
544.683	1042
544.809	1044
544.935	1038
545.061	1041
545.187	1035
545.313	1037
545.439	1038
545.565	1034
545.691	1042
545.817	1032
545.943	1030
546.069	1036
546.195	1033
546.321	1041
546.447	1032
546.573	1042
546.699	1035
546.825	1027
546.951	1037
547.077	1040
547.203	1030
547.329	1033
547.454	1034
547.58	1039
547.706	1031
547.832	1043
547.958	1040
548.084	1035
548.21	1035
548.336	1038
548.462	1032
548.587	1027
548.713	1029
548.839	1027
548.965	1032
549.091	1034
549.217	1032
549.342	1043
549.468	1036
549.594	1032
549.72	1034
549.846	1037
549.971	1038
550.097	1035
550.223	1035
550.349	1038
550.474	1038
550.6	1031
550.726	1040
550.852	1039
550.977	1037
551.103	1036
551.229	1042
551.355	1038
551.48	1037
551.606	1031
551.732	1036
551.857	1043
551.983	1038
552.109	1042
552.234	1034
552.36	1036
552.486	1041
552.611	1042
552.737	1031
552.863	1044
552.988	1040
553.114	1033
553.24	1032
553.365	1045
553.491	1038
553.616	1033
553.742	1034
553.868	1038
553.993	1041
554.119	1042
554.244	1033
554.37	1039
554.495	1041
554.621	1036
554.746	1040
554.872	1034
554.998	1038
555.123	1038
555.249	1040
555.374	1041
555.5	1032
555.625	1035
555.751	1030
555.876	1038
556.002	1023
556.127	1036
556.252	1036
556.378	1038
556.503	1032
556.629	1033
556.754	1036
556.88	1044
557.005	1031
557.131	1041
557.256	1046
557.381	1037
557.507	1037
557.632	1034
557.758	1030
557.883	1032
558.008	1032
558.134	1037
558.259	1034
558.384	1039
558.51	1030
558.635	1032
558.76	1036
558.886	1025
559.011	1031
559.136	1038
559.262	1035
559.387	1042
559.512	1032
559.638	1031
559.763	1043
559.888	1037
560.013	1041
560.139	1034
560.264	1037
560.389	1039
560.514	1032
560.64	1035
560.765	1042
560.89	1036
561.015	1036
561.141	1032
561.266	1042
561.391	1031
561.516	1030
561.641	1035
561.767	1033
561.892	1029
562.017	1034
562.142	1035
562.267	1033
562.392	1035
562.518	1038
562.643	1037
562.768	1037
562.893	1032
563.018	1035
563.143	1035
563.268	1031
563.393	1036
563.518	1041
563.644	1036
563.769	1034
563.894	1032
564.019	1035
564.144	1041
564.269	1035
564.394	1038
564.519	1036
564.644	1041
564.769	1036
564.894	1048
565.019	1032
565.144	1039
565.269	1036
565.394	1035
565.519	1030
565.644	1051
565.769	1040
565.894	1035
566.019	1033
566.144	1040
566.269	1038
566.394	1041
566.519	1040
566.644	1043
566.769	1040
566.893	1040
567.018	1036
567.143	1038
567.268	1033
567.393	1031
567.518	1045
567.643	1032
567.768	1041
567.893	1039
568.017	1042
568.142	1036
568.267	1033
568.392	1040
568.517	1040
568.642	1038
568.766	1052
568.891	1036
569.016	1046
569.141	1039
569.266	1033
569.39	1036
569.515	1040
569.64	1033
569.765	1045
569.889	1033
570.014	1037
570.139	1040
570.264	1046
570.388	1039
570.513	1044
570.638	1034
570.762	1030
570.887	1035
571.012	1046
571.137	1041
571.261	1041
571.386	1043
571.511	1044
571.635	1038
571.76	1039
571.885	1027
572.009	1032
572.134	1044
572.258	1036
572.383	1037
572.508	1039
572.632	1040
572.757	1039
572.881	1040
573.006	1040
573.131	1036
573.255	1040
573.38	1035
573.504	1030
573.629	1041
573.753	1042
573.878	1030
574.003	1040
574.127	1034
574.252	1039
574.376	1041
574.501	1041
574.625	1028
574.75	1035
574.874	1043
574.999	1035
575.123	1033
575.248	1039
575.372	1036
575.496	1039
575.621	1037
575.745	1039
575.87	1046
575.994	1044
576.119	1048
576.243	1037
576.367	1038
576.492	1041
576.616	1037
576.741	1036
576.865	1035
576.989	1039
577.114	1047
577.238	1037
577.362	1046
577.487	1032
577.611	1051
577.735	1028
577.86	1039
577.984	1037
578.108	1040
578.233	1035
578.357	1043
578.481	1038
578.606	1045
578.73	1042
578.854	1044
578.978	1038
578.977	1027
579.106	1020
579.234	1038
579.362	1029
579.491	1028
579.619	1035
579.747	1034
579.875	1041
580.004	1039
580.132	1036
580.26	1030
580.388	1033
580.517	1028
580.645	1038
580.773	1032
580.901	1035
581.03	1024
581.158	1034
581.286	1039
581.414	1038
581.542	1038
581.671	1036
581.799	1039
581.927	1037
582.055	1041
582.183	1026
582.312	1027
582.44	1031
582.568	1032
582.696	1033
582.824	1036
582.952	1041
583.08	1033
583.209	1034
583.337	1031
583.465	1038
583.593	1045
583.721	1036
583.849	1039
583.977	1029
584.105	1035
584.233	1038
584.362	1038
584.49	1033
584.618	1041
584.746	1034
584.874	1046
585.002	1035
585.13	1045
585.258	1037
585.386	1039
585.514	1043
585.642	1027
585.77	1035
585.898	1047
586.026	1043
586.154	1040
586.282	1035
586.41	1035
586.538	1053
586.666	1046
586.794	1044
586.922	1041
587.05	1041
587.178	1042
587.306	1043
587.434	1042
587.562	1042
587.69	1047
587.818	1039
587.946	1049
588.074	1045
588.202	1044
588.33	1050
588.458	1048
588.586	1054
588.714	1049
588.842	1057
588.97	1049
589.097	1037
589.225	1049
589.353	1044
589.481	1036
589.609	1048
589.737	1052
589.865	1053
589.993	1053
590.121	1041
590.248	1040
590.376	1042
590.504	1051
590.632	1047
590.76	1058
590.888	1056
591.015	1053
591.143	1049
591.271	1054
591.399	1061
591.527	1057
591.655	1057
591.782	1056
591.91	1058
592.038	1061
592.166	1063
592.294	1059
592.421	1056
592.549	1059
592.677	1064
592.805	1068
592.932	1061
593.06	1062
593.188	1050
593.316	1055
593.443	1061
593.571	1054
593.699	1053
593.826	1058
593.954	1049
594.082	1067
594.21	1072
594.337	1059
594.465	1052
594.593	1064
594.72	1068
594.848	1067
594.976	1065
595.103	1061
595.231	1073
595.359	1060
595.486	1066
595.614	1076
595.742	1070
595.869	1061
595.997	1061
596.124	1055
596.252	1067
596.38	1067
596.507	1056
596.635	1077
596.763	1063
596.89	1071
597.018	1053
597.145	1075
597.273	1082
597.4	1071
597.528	1065
597.656	1073
597.783	1055
597.911	1073
598.038	1077
598.166	1073
598.293	1079
598.421	1081
598.548	1075
598.676	1084
598.803	1078
598.931	1091
599.058	1078
599.186	1083
599.313	1082
599.441	1083
599.568	1068
599.696	1082
599.823	1078
599.951	1094
600.078	1076
600.206	1088
600.333	1087
600.461	1086
600.588	1086
600.715	1086
600.843	1086
600.97	1093
601.098	1077
601.225	1095
601.353	1087
601.48	1089
601.607	1091
601.735	1104
601.862	1105
601.99	1112
602.117	1083
602.244	1096
602.372	1099
602.499	1098
602.626	1104
602.754	1100
602.881	1104
603.008	1091
603.136	1098
603.263	1097
603.39	1093
603.518	1109
603.645	1107
603.772	1093
603.9	1107
604.027	1116
604.154	1106
604.281	1114
604.409	1096
604.536	1104
604.663	1106
604.791	1123
604.918	1122
605.045	1118
605.172	1087
605.3	1107
605.427	1119
605.554	1116
605.681	1126
605.809	1130
605.936	1112
606.063	1124
606.19	1116
606.317	1127
606.445	1120
606.572	1122
606.699	1112
606.826	1124
606.953	1141
607.08	1141
607.208	1125
607.335	1119
607.462	1139
607.589	1143
607.716	1138
607.843	1113
607.97	1126
608.098	1138
608.225	1133
608.352	1135
608.479	1133
608.606	1135
608.733	1148
608.86	1139
608.987	1134
609.114	1136
609.241	1147
609.369	1137
609.496	1130
609.623	1149
609.75	1147
609.877	1134
610.004	1141
610.131	1138
610.258	1156
610.385	1145
610.512	1132
610.639	1145
610.766	1152
610.893	1149
611.02	1159
611.147	1144
611.274	1145
611.401	1157
611.528	1156
611.655	1147
611.782	1144
611.909	1159
612.036	1169
612.163	1156
612.29	1162
612.417	1166
612.543	1183
612.67	1163
612.797	1165
612.924	1164
613.051	1172
613.178	1165
613.305	1167
613.432	1173
613.559	1169
613.686	1178
613.813	1168
613.939	1181
614.066	1188
614.193	1176
614.32	1186
614.447	1171
614.574	1183
614.701	1179
614.827	1189
614.954	1209
615.081	1204
615.208	1189
615.335	1188
615.461	1211
615.588	1185
615.715	1183
615.842	1215
615.969	1188
616.095	1204
616.222	1189
616.349	1192
616.476	1212
616.602	1221
616.729	1210
616.856	1211
616.983	1196
617.109	1218
617.236	1225
617.363	1220
617.49	1222
617.616	1220
617.743	1235
617.87	1215
617.996	1230
618.123	1209
618.25	1223
618.376	1234
618.503	1218
618.63	1226
618.756	1233
618.883	1230
619.01	1211
619.136	1246
619.263	1220
619.39	1243
619.516	1231
619.643	1237
619.769	1224
619.896	1235
620.023	1230
620.149	1231
620.276	1248
620.402	1248
620.529	1245
620.656	1253
620.782	1261
620.909	1265
621.035	1246
621.162	1247
621.288	1269
621.415	1260
621.541	1277
621.668	1255
621.795	1250
621.921	1277
622.048	1260
622.174	1266
622.301	1262
622.427	1279
622.554	1268
622.68	1285
622.807	1287
622.933	1284
623.059	1273
623.186	1269
623.312	1269
623.439	1300
623.565	1304
623.692	1302
623.818	1289
623.945	1277
624.071	1285
624.197	1293
624.324	1298
624.45	1293
624.577	1278
624.703	1315
624.829	1290
624.956	1299
625.082	1316
625.209	1319
625.335	1323
625.461	1319
625.588	1325
625.714	1312
625.84	1323
625.967	1334
626.093	1329
626.219	1325
626.346	1334
626.472	1349
626.598	1332
626.725	1335
626.851	1329
626.977	1357
627.103	1358
627.23	1324
627.356	1345
627.482	1351
627.608	1385
627.735	1385
627.861	1368
627.987	1383
628.113	1363
628.24	1370
628.366	1341
628.492	1374
628.618	1389
628.745	1363
628.871	1381
628.997	1366
629.123	1374
629.249	1373
629.376	1375
629.502	1397
629.628	1390
629.754	1410
629.88	1388
630.006	1407
630.132	1392
630.259	1410
630.385	1425
630.511	1406
630.637	1413
630.763	1407
630.889	1423
631.015	1424
631.141	1424
631.268	1451
631.394	1453
631.52	1441
631.646	1434
631.772	1461
631.898	1437
632.024	1462
632.15	1465
632.276	1465
632.402	1450
632.528	1449
632.654	1486
632.78	1472
632.906	1470
633.032	1463
633.158	1467
633.284	1487
633.41	1486
633.536	1462
633.662	1499
633.788	1494
633.914	1515
634.04	1506
634.166	1516
634.292	1522
634.418	1525
634.544	1508
634.67	1547
634.796	1548
634.922	1560
635.048	1576
635.173	1549
635.299	1533
635.425	1561
635.551	1544
635.677	1545
635.803	1570
635.929	1576
636.055	1588
636.181	1598
636.306	1580
636.432	1599
636.558	1559
636.684	1594
636.81	1600
636.936	1597
637.061	1570
637.187	1565
637.313	1603
637.439	1620
637.565	1582
637.69	1644
637.816	1597
637.942	1622
638.068	1620
638.193	1639
638.319	1646
638.445	1616
638.571	1655
638.696	1624
638.822	1630
638.948	1647
639.074	1655
639.199	1675
639.325	1714
639.451	1676
639.577	1716
639.702	1724
639.828	1677
639.954	1706
640.079	1652
640.205	1699
640.331	1703
640.456	1714
640.582	1706
640.708	1711
640.833	1730
640.959	1758
641.084	1766
641.21	1756
641.336	1775
641.461	1787
641.587	1762
641.712	1766
641.838	1767
641.964	1853
642.089	1796
642.215	1836
642.34	1813
642.466	1801
642.592	1852
642.717	1856
642.843	1819
642.968	1889
643.094	1842
643.219	1886
643.345	1873
643.47	1897
643.596	1883
643.721	1909
643.847	1906
643.972	1927
644.098	1941
644.223	1957
644.349	1946
644.474	1927
644.6	1948
644.725	1969
644.85	1981
644.976	2023
645.101	1988
645.227	2018
645.352	2002
645.478	2023
645.603	2061
645.728	2038
645.854	2018
645.979	2078
646.105	2044
646.23	2068
646.355	2120
646.481	2061
646.606	2065
646.731	2092
646.857	2126
646.982	2114
647.107	2171
647.233	2134
647.358	2145
647.483	2187
647.609	2195
647.734	2192
647.859	2206
647.985	2227
648.11	2223
648.235	2258
648.36	2269
648.486	2287
648.611	2270
648.736	2298
648.862	2289
648.987	2352
649.112	2337
649.237	2334
649.362	2385
649.488	2414
649.613	2465
649.738	2435
649.863	2448
649.988	2439
650.114	2484
650.239	2510
650.364	2494
650.489	2536
650.614	2542
650.74	2546
650.865	2583
650.99	2636
651.115	2607
651.24	2679
651.365	2667
651.49	2697
651.615	2731
651.741	2690
651.866	2749
651.991	2740
652.116	2801
652.241	2792
652.366	2789
652.491	2809
652.616	2814
652.741	2838
652.866	2847
652.991	2834
653.116	2823
653.241	2812
653.366	2851
653.491	2901
653.616	2836
653.741	2908
653.866	2900
653.991	2974
654.116	2900
654.241	2907
654.366	2998
654.491	2977
654.616	2985
654.741	2963
654.866	3016
654.991	3038
655.116	3071
655.241	3128
655.366	3091
655.491	3115
655.616	3159
655.741	3171
655.866	3286
655.99	3224
656.115	3334
656.24	3386
656.365	3348
656.49	3459
656.615	3520
656.74	3488
656.865	3547
656.989	3614
657.114	3651
657.239	3621
657.364	3727
657.489	3646
657.614	3759
657.738	3739
657.863	3796
657.988	3816
658.113	3846
658.238	3874
658.362	3898
658.487	3894
658.612	3924
658.737	4017
658.861	3976
658.986	3995
659.111	4012
659.236	4057
659.36	4115
659.485	4178
659.61	4225
659.734	4220
659.859	4301
659.984	4351
660.108	4433
660.233	4437
660.358	4570
660.482	4617
660.607	4700
660.732	4683
660.856	4746
660.981	4866
661.106	4884
661.23	4991
661.355	5050
661.48	5032
661.604	5171
661.729	5206
661.853	5184
661.978	5284
662.103	5367
662.227	5313
662.352	5389
662.476	5438
662.601	5444
662.725	5554
662.85	5547
662.974	5621
663.099	5670
663.224	5626
663.348	5632
663.473	5705
663.597	5770
663.722	5742
663.846	5779
663.971	5796
664.095	5944
664.219	5972
664.344	5950
664.468	6109
664.593	6030
664.717	6076
664.842	6200
664.966	6264
665.091	6350
665.215	6296
665.339	6372
665.464	6468
665.588	6453
665.713	6481
665.837	6482
665.961	6570
666.086	6532
666.21	6628
666.335	6665
666.459	6666
666.583	6775
666.708	6816
666.832	6737
666.956	6859
667.081	6851
667.205	6777
667.329	6893
667.454	6946
667.578	6919
667.702	6941
667.826	6940
667.951	7022
668.075	6892
668.199	6889
668.324	7020
668.448	6969
668.572	7037
668.696	7089
668.82	6980
668.945	7123
669.069	7130
669.193	7125
669.317	7140
669.442	7244
669.566	7290
669.69	7217
669.814	7348
669.938	7355
670.062	7340
670.187	7451
670.311	7557
670.435	7676
670.559	7777
670.683	7743
670.807	7928
670.931	7976
671.056	8109
671.18	8195
671.304	8337
671.428	8482
671.552	8652
671.676	8620
671.8	8733
671.924	8925
672.048	8976
672.172	9084
672.296	9209
672.42	9231
672.544	9398
672.669	9438
672.793	9760
672.917	9677
673.041	9774
673.165	9993
673.289	10093
673.413	10165
673.537	10372
673.661	10548
673.785	10623
673.908	10684
674.032	10888
674.156	10922
674.28	11132
674.404	11269
674.528	11399
674.652	11484
674.776	11658
674.9	11634
675.024	11859
675.148	11985
675.272	12174
675.396	12017
675.519	12176
675.643	12274
675.767	12258
675.891	12455
676.015	12288
676.139	12398
676.263	12261
676.386	12247
676.51	12121
676.634	12152
676.758	11998
676.882	12031
677.005	11878
677.129	11799
677.253	11748
677.377	11731
677.501	11566
677.624	11714
677.748	11435
677.872	11395
677.996	11293
678.119	11312
678.243	11038
678.367	11027
678.491	10932
678.614	10953
678.738	10791
678.862	10651
678.985	10615
679.109	10528
679.233	10414
679.356	10389
679.48	10153
679.604	10268
679.727	10049
679.851	9991
679.975	9924
680.098	9916
680.222	9744
680.346	9724
680.469	9641
680.593	9476
680.716	9491
680.84	9455
680.963	9324
681.087	9352
681.211	9284
681.334	9159
681.458	9270
681.581	9205
681.705	9054
681.828	9098
681.952	8993
682.075	9162
682.199	9091
682.322	9229
682.446	9228
682.569	9263
682.693	9354
682.816	9421
682.94	9713
683.063	9700
683.187	9944
683.31	10314
683.434	10750
683.557	11201
683.681	11939
683.804	12517
683.928	13458
684.051	14659
684.174	15901
684.298	17423
684.421	18964
684.545	20659
684.668	22644
684.791	24326
684.915	26320
685.038	27917
685.161	29752
685.285	31077
685.408	33028
685.531	34512
685.655	35838
685.778	37384
685.901	38673
686.025	39943
686.148	41235
686.271	42583
686.395	43572
686.518	44964
686.641	46354
686.764	47675
686.888	48492
687.011	49512
687.134	50536
687.257	51120
687.381	51713
687.504	52405
687.627	52876
687.75	53413
687.873	53285
687.997	53303
688.12	53616
688.243	53481
688.366	53185
688.489	52953
688.613	52499
688.736	51941
688.859	51507
688.982	50793
689.105	50124
689.228	49369
689.351	48562
689.475	47612
689.598	47004
689.721	46256
689.844	45050
689.967	43953
690.09	43262
690.213	42154
690.336	41320
690.459	40244
690.582	39304
690.705	38911
690.828	37990
690.951	36930
691.074	36343
691.197	35731
691.32	35296
691.443	34503
691.566	34039
691.689	33698
691.812	33393
691.935	33190
692.058	32802
692.181	32533
692.304	32284
692.427	32149
692.55	31977
692.673	31566
692.796	31352
692.919	31222
693.042	31113
693.165	30973
693.288	30729
693.411	30624
693.533	30270
693.656	30175
693.779	29692
693.902	29825
694.025	29561
694.148	29116
694.271	29220
694.393	28733
694.516	28506
694.639	28261
694.762	28088
694.885	27710
695.008	27643
695.13	27508
695.253	27314
695.376	27285
695.499	27196
695.622	27189
695.744	26967
695.867	27000
695.99	26853
696.113	26777
696.235	26860
696.358	26747
696.481	26820
696.603	26681
696.726	26636
696.849	26656
696.972	26941
697.094	26909
697.217	26971
697.34	26916
697.462	26742
697.585	26731
697.708	26585
697.83	26838
697.953	26696
698.075	26519
698.198	26370
698.321	26356
698.443	26196
698.566	26240
698.688	26075
698.811	25965
698.934	25719
699.056	25622
699.179	25734
699.301	25706
699.424	25357
699.546	25313
699.669	25091
699.792	24803
699.914	24907
700.037	24580
700.159	24350
700.282	24200
700.404	23998
700.527	23857
700.649	23581
700.772	23298
700.894	23146
701.016	22893
701.139	22885
701.261	22628
701.384	22373
701.506	22303
701.629	21910
701.751	21839
701.873	21737
701.996	21556
702.118	21506
702.241	21243
702.363	21047
702.485	20942
702.608	21166
702.73	20998
702.853	20837
702.975	20843
703.097	20915
703.22	20908
703.342	20823
703.464	20960
703.587	21007
703.709	21108
703.831	21111
703.953	21313
704.076	21407
704.198	21494
704.32	21579
704.442	21733
704.565	21763
704.687	22016
704.809	21875
704.931	22230
705.054	22161
705.176	22429
705.298	22462
705.42	22750
705.543	22789
705.665	22721
705.787	22920
705.909	23017
706.031	23259
706.025	24856
706.151	24930
706.278	25072
706.404	25185
706.531	25329
706.657	25306
706.783	25208
706.91	25313
707.036	25408
707.162	25302
707.289	25330
707.415	25109
707.541	25163
707.668	25071
707.794	25117
707.92	25015
708.047	25010
708.173	24740
708.299	24834
708.426	24611
708.552	24567
708.678	24352
708.805	24310
708.931	24187
709.057	24068
709.183	23774
709.31	23696
709.436	23357
709.562	23423
709.688	23030
709.815	22951
709.941	22532
710.067	22503
710.193	22365
710.32	22046
710.446	22089
710.572	21873
710.698	21684
710.824	21448
710.951	21478
711.077	21039
711.203	21107
711.329	20830
711.455	20789
711.581	20624
711.708	20613
711.834	20418
711.96	20341
712.086	20034
712.212	19942
712.338	19997
712.464	19850
712.591	19859
712.717	19719
712.843	19911
712.969	19705
713.095	19698
713.221	19512
713.347	19341
713.473	19613
713.599	19573
713.725	19398
713.852	19409
713.978	19387
714.104	19277
714.23	19608
714.356	19549
714.482	19631
714.608	19745
714.734	19920
714.86	20076
714.986	19987
715.112	19868
715.238	20210
715.364	20158
715.49	20518
715.616	20428
715.742	20586
715.868	20673
715.994	20887
716.12	20994
716.246	21049
716.372	20959
716.498	20994
716.624	21248
716.75	20929
716.876	20925
717.002	20852
717.127	20739
717.253	20583
717.379	20258
717.505	20099
717.631	20089
717.757	19650
717.883	19356
718.009	19336
718.135	18948
718.261	18686
718.386	18302
718.512	18081
718.638	17745
718.764	17721
718.89	17217
719.016	17108
719.142	16767
719.267	16634
719.393	16149
719.519	15914
719.645	15832
719.771	15597
719.896	15427
720.022	15319
720.148	15199
720.274	15038
720.4	15018
720.525	14710
720.651	14634
720.777	14635
720.903	14730
721.029	14460
721.154	14396
721.28	14160
721.406	14196
721.531	14321
721.657	14081
721.783	13986
721.909	13964
722.034	13852
722.16	13765
722.286	13690
722.411	13561
722.537	13434
722.663	13350
722.789	13107
722.914	13084
723.04	12989
723.166	12845
723.291	12744
723.417	12639
723.542	12411
723.668	12342
723.794	12180
723.919	12200
724.045	12191
724.171	11726
724.296	11684
724.422	11530
724.547	11596
724.673	11450
724.799	11252
724.924	11154
725.05	11107
725.175	11013
725.301	10920
725.426	10708
725.552	10641
725.678	10595
725.803	10494
725.929	10493
726.054	10431
726.18	10275
726.305	10193
726.431	10125
726.556	10096
726.682	10093
726.807	9878
726.933	9806
727.058	9869
727.184	9845
727.309	9719
727.435	9729
727.56	9611
727.686	9472
727.811	9370
727.937	9409
728.062	9263
728.187	9225
728.313	9114
728.438	9178
728.564	9093
728.689	8964
728.815	8980
728.94	8979
729.065	8915
729.191	8946
729.316	8823
729.441	8766
729.567	8631
729.692	8672
729.818	8772
729.943	8659
730.068	8578
730.194	8534
730.319	8475
730.444	8393
730.57	8370
730.695	8480
730.82	8333
730.946	8277
731.071	8327
731.196	8281
731.321	8256
731.447	8173
731.572	8058
731.697	8068
731.823	8094
731.948	8063
732.073	7950
732.198	7944
732.324	7940
732.449	7877
732.574	7893
732.699	7885
732.825	7810
732.95	7669
733.075	7766
733.2	7710
733.325	7668
733.451	7717
733.576	7682
733.701	7634
733.826	7651
733.951	7495
734.077	7443
734.202	7458
734.327	7441
734.452	7421
734.577	7416
734.702	7384
734.827	7339
734.953	7279
735.078	7290
735.203	7367
735.328	7229
735.453	7307
735.578	7226
735.703	7137
735.828	7176
735.953	7200
736.078	7118
736.203	7060
736.329	7147
736.454	6969
736.579	7084
736.704	7084
736.829	7067
736.954	7000
737.079	6902
737.204	6892
737.329	6958
737.454	6891
737.579	6935
737.704	6866
737.829	6951
737.954	6889
738.079	6887
738.204	6783
738.329	6899
738.454	6816
738.579	6797
738.704	6757
738.829	6670
738.953	6726
739.078	6743
739.203	6770
739.328	6748
739.453	6600
739.578	6650
739.703	6669
739.828	6607
739.953	6627
740.078	6504
740.203	6578
740.327	6493
740.452	6498
740.577	6461
740.702	6361
740.827	6487
740.952	6437
741.077	6395
741.201	6384
741.326	6367
741.451	6339
741.576	6304
741.701	6350
741.825	6246
741.95	6204
742.075	6305
742.2	6179
742.325	6163
742.449	6130
742.574	6156
742.699	6166
742.824	6082
742.948	6033
743.073	6109
743.198	6021
743.323	5931
743.447	6104
743.572	6019
743.697	5966
743.821	5933
743.946	5845
744.071	5876
744.196	5854
744.32	5806
744.445	5820
744.57	5836
744.694	5808
744.819	5747
744.944	5760
745.068	5720
745.193	5787
745.318	5697
745.442	5647
745.567	5668
745.691	5598
745.816	5753
745.941	5592
746.065	5584
746.19	5600
746.314	5605
746.439	5542
746.564	5517
746.688	5523
746.813	5462
746.937	5421
747.062	5541
747.186	5388
747.311	5437
747.435	5380
747.56	5355
747.684	5391
747.809	5372
747.933	5342
748.058	5262
748.182	5199
748.307	5274
748.431	5322
748.556	5248
748.68	5233
748.805	5161
748.929	5163
749.054	5170
749.178	5249
749.303	5156
749.427	5176
749.552	5209
749.676	5138
749.8	4990
749.925	5066
750.049	5070
750.174	5043
750.298	4985
750.422	5003
750.547	4943
750.671	4926
750.796	4943
750.92	4929
751.044	4903
751.169	4913
751.293	4854
751.417	4854
751.542	4854
751.666	4822
751.79	4860
751.915	4815
752.039	4814
752.163	4817
752.287	4714
752.412	4733
752.536	4706
752.66	4694
752.785	4662
752.909	4650
753.033	4721
753.157	4653
753.282	4644
753.406	4604
753.53	4662
753.654	4641
753.779	4563
753.903	4525
754.027	4561
754.151	4527
754.275	4531
754.4	4524
754.524	4565
754.648	4468
754.772	4473
754.896	4587
755.02	4427
755.145	4424
755.269	4420
755.393	4410
755.517	4349
755.641	4381
755.765	4361
755.889	4327
756.013	4308
756.138	4316
756.262	4346
756.386	4323
756.51	4324
756.634	4275
756.758	4256
756.882	4245
757.006	4255
757.13	4208
757.254	4264
757.378	4233
757.502	4130
757.626	4210
757.75	4180
757.874	4167
757.998	4210
758.122	4138
758.246	4096
758.37	4141
758.494	4080
758.618	4075
758.742	4094
758.866	4040
758.99	4027
759.114	4078
759.238	4000
759.362	4048
759.486	4048
759.61	3996
759.734	3995
759.858	3939
759.982	3970
760.106	3921
760.23	3945
760.353	3892
760.477	3934
760.601	3876
760.725	3866
760.849	3900
760.973	3819
761.097	3833
761.221	3865
761.344	3789
761.468	3735
761.592	3793
761.716	3829
761.84	3788
761.963	3810
762.087	3744
762.211	3812
762.335	3753
762.459	3750
762.582	3803
762.706	3715
762.83	3765
762.954	3700
763.078	3709
763.201	3708
763.325	3651
763.449	3679
763.572	3747
763.696	3673
763.82	3621
763.944	3655
764.067	3664
764.191	3612
764.315	3576
764.438	3553
764.562	3567
764.686	3534
764.809	3552
764.933	3577
765.057	3545
765.18	3522
765.304	3538
765.428	3545
765.551	3470
765.675	3495
765.798	3507
765.922	3516
766.046	3453
766.169	3495
766.293	3442
766.416	3523
766.54	3455
766.664	3388
766.787	3396
766.911	3414
767.034	3404
767.158	3377
767.281	3411
767.405	3351
767.528	3322
767.652	3339
767.775	3317
767.899	3293
768.022	3296
768.146	3272
768.269	3314
768.393	3307
768.516	3275
768.64	3293
768.763	3314
768.887	3262
769.01	3223
769.134	3230
769.257	3290
769.381	3283
769.504	3232
769.627	3210
769.751	3216
769.874	3243
769.998	3223
770.121	3217
770.244	3150
770.368	3152
770.491	3158
770.614	3198
770.738	3186
770.861	3108
770.985	3104
771.108	3120
771.231	3121
771.355	3093
771.478	3086
771.601	3112
771.724	3099
771.848	3094
771.971	3059
772.094	3076
772.218	3026
772.341	3074
772.464	3018
772.587	3031
772.711	2985
772.834	2975
772.957	2994
773.08	3007
773.204	3008
773.327	2935
773.45	2996
773.573	2999
773.696	2948
773.82	2900
773.943	2974
774.066	2924
774.189	2919
774.312	2907
774.436	2904
774.559	2940
774.682	2884
774.805	2913
774.928	2902
775.051	2861
775.174	2891
775.297	2855
775.421	2843
775.544	2835
775.667	2860
775.79	2870
775.913	2845
776.036	2785
776.159	2796
776.282	2778
776.405	2845
776.528	2773
776.651	2779
776.774	2838
776.897	2750
777.02	2790
777.143	2763
777.266	2733
777.389	2733
777.512	2710
777.635	2720
777.758	2654
777.881	2731
778.004	2695
778.127	2724
778.25	2692
778.373	2726
778.496	2643
778.619	2699
778.742	2652
778.865	2740
778.988	2669
779.111	2655
779.234	2627
779.357	2637
779.48	2612
779.602	2674
779.725	2628
779.848	2629
779.971	2606
780.094	2594
780.217	2669
780.34	2589
780.462	2635
780.585	2577
780.708	2577
780.831	2562
780.954	2507
781.077	2566
781.199	2578
781.322	2539
781.445	2538
781.568	2531
781.691	2512
781.813	2491
781.936	2555
782.059	2535
782.182	2566
782.304	2535
782.427	2509
782.55	2449
782.672	2482
782.795	2508
782.918	2463
783.041	2506
783.163	2457
783.286	2480
783.409	2469
783.531	2502
783.654	2441
783.777	2458
783.899	2458
784.022	2440
784.145	2381
784.267	2440
784.39	2413
784.512	2408
784.635	2356
784.758	2396
784.88	2357
785.003	2358
785.125	2419
785.248	2381
785.371	2383
785.493	2332
785.616	2365
785.738	2343
785.861	2346
785.983	2369
786.106	2303
786.228	2324
786.351	2330
786.473	2294
786.596	2286
786.718	2346
786.841	2327
786.963	2339
787.086	2305
787.208	2330
787.331	2304
787.453	2280
787.576	2324
787.698	2279
787.821	2267
787.943	2284
788.066	2298
788.188	2267
788.31	2289
788.433	2243
788.555	2235
788.678	2226
788.8	2252
788.922	2265
789.045	2231
789.167	2246
789.289	2232
789.412	2215
789.534	2251
789.656	2246
789.779	2174
789.901	2223
790.023	2215
790.146	2180
790.268	2188
790.39	2188
790.513	2183
790.635	2194
790.757	2215
790.879	2192
791.002	2132
791.124	2170
791.246	2160
791.368	2162
791.491	2139
791.613	2150
791.735	2164
791.857	2148
791.98	2123
792.102	2130
792.224	2097
792.346	2172
792.468	2148
792.59	2127
792.713	2171
792.835	2150
792.957	2113
793.079	2163
793.201	2169
793.323	2108
793.446	2104
793.568	2077
793.69	2121
793.812	2136
793.934	2159
794.056	2128
794.178	2126
794.3	2134
794.422	2095
794.544	2095
794.666	2093
794.788	2083
794.91	2089
795.033	2055
795.155	2084
795.277	2068
795.399	2082
795.521	2033
795.643	2056
795.765	2080
795.887	2069
796.009	2079
796.131	2054
796.253	1999
796.374	2068
796.496	2026
796.618	2045
796.74	2042
796.862	2032
796.984	2019
797.106	2031
797.228	2017
797.35	2024
797.472	1988
797.594	1993
797.716	1957
797.837	1994
797.959	2045
798.081	2009
798.203	1987
798.325	2017
798.447	2019
798.569	2005
798.69	2010
798.812	1986
798.934	1996
799.056	1979
799.178	1983
799.299	1994
799.421	1949
799.543	1986
799.665	1975
799.787	1981
799.908	1976
800.03	1972
800.152	1986
800.274	1954
800.395	1963
800.517	1947
800.639	1949
800.76	1969
800.882	1971
801.004	1940
801.126	1932
801.247	1945
801.369	1926
801.491	1969
801.612	1940
801.734	1946
801.856	1945
801.977	1909
802.099	1922
802.22	1952
802.342	1922
802.464	1926
802.585	1900
802.707	1925
802.828	1934
802.95	1908
803.072	1915
803.193	1884
803.315	1906
803.436	1865
803.558	1890
803.679	1867
803.801	1865
803.922	1896
804.044	1891
804.165	1845
804.287	1923
804.408	1869
804.53	1884
804.651	1870
804.773	1882
804.894	1843
805.016	1848
805.137	1899
805.259	1851
805.38	1898
805.502	1853
805.623	1875
805.745	1889
805.866	1872
805.987	1865
806.109	1798
806.23	1850
806.352	1852
806.473	1845
806.594	1863
806.716	1863
806.837	1832
806.958	1858
807.08	1824
807.201	1875
807.322	1821
807.444	1830
807.565	1867
807.686	1834
807.808	1814
807.929	1821
808.05	1808
808.171	1795
808.293	1833
808.414	1813
808.535	1800
808.657	1797
808.778	1812
808.899	1808
809.02	1801
809.141	1800
809.263	1795
809.384	1796
809.505	1814
809.626	1822
809.747	1794
809.869	1760
809.99	1813
810.111	1803
810.232	1801
810.353	1794
810.474	1785
810.596	1802
810.717	1760
810.838	1804
810.959	1792
811.08	1807
811.201	1740
811.322	1754
811.443	1757
811.564	1736
811.686	1766
811.807	1769
811.928	1748
812.049	1767
812.17	1745
812.291	1765
812.412	1785
812.533	1743
812.654	1757
812.775	1722
812.896	1740
813.017	1768
813.138	1732
813.259	1724
813.38	1766
813.501	1716
813.622	1745
813.743	1724
813.864	1736
813.985	1749
814.105	1728
814.226	1713
814.347	1756
814.468	1734
814.589	1705
814.71	1725
814.831	1717
814.952	1751
815.073	1743
815.194	1708
815.314	1693
815.435	1711
815.556	1707
815.677	1720
815.798	1714
815.919	1720
816.039	1713
816.16	1720
816.281	1691
816.402	1730
816.523	1702
816.643	1714
816.764	1708
816.885	1692
817.006	1687
817.126	1684
817.247	1719
817.368	1686
817.489	1698
817.609	1708
817.73	1690
817.851	1697
817.971	1692
818.092	1664
818.213	1688
818.333	1704
818.454	1690
818.575	1693
818.695	1676
818.816	1685
818.937	1690
819.057	1660
819.178	1702
819.299	1676
819.419	1673
819.54	1690
819.66	1686
819.781	1635
819.902	1658
820.022	1672
820.143	1658
820.263	1676
820.384	1657
820.504	1644
820.625	1650
820.745	1665
820.866	1659
820.987	1625
821.107	1643
821.228	1661
821.348	1666
821.469	1650
821.589	1641
821.709	1627
821.83	1628
821.95	1630
822.071	1651
822.191	1629
822.312	1658
822.432	1650
822.553	1623
822.673	1657
822.793	1639
822.914	1641
823.034	1610
823.155	1624
823.275	1602
823.395	1603
823.516	1618
823.636	1617
823.756	1655
823.877	1574
823.997	1587
824.117	1644
824.238	1607
824.358	1623
824.478	1617
824.599	1596
824.719	1600
824.839	1620
824.959	1604
825.08	1572
825.2	1608
825.32	1583
825.44	1613
825.561	1632
825.681	1615
825.801	1582
825.921	1627
826.042	1597
826.162	1609
826.282	1592
826.402	1600
826.522	1600
826.643	1630
826.763	1608
826.883	1606
827.003	1590
827.123	1592
827.243	1622
827.363	1565
827.484	1611
827.604	1584
827.724	1594
827.844	1571
827.964	1566
828.084	1595
828.204	1580
828.324	1574
828.444	1571
828.564	1578
828.684	1579
828.804	1586
828.924	1586
829.044	1560
829.164	1579
829.284	1583
829.404	1587
829.524	1565
829.644	1565
829.764	1593
829.884	1578
830.004	1570
830.124	1593
830.244	1572
830.364	1550
830.484	1590
830.604	1593
830.724	1579
830.844	1576
830.964	1585
830.961	1575
831.086	1594
831.21	1585
831.334	1582
831.459	1580
831.583	1594
831.707	1570
831.832	1562
831.956	1587
832.08	1600
832.204	1588
832.329	1595
832.453	1589
832.577	1559
832.701	1558
832.826	1591
832.95	1530
833.074	1583
833.198	1546
833.323	1558
833.447	1556
833.571	1549
833.695	1595
833.819	1553
833.944	1594
834.068	1549
834.192	1539
834.316	1570
834.44	1530
834.564	1556
834.689	1544
834.813	1551
834.937	1565
835.061	1568
835.185	1543
835.309	1581
835.433	1548
835.558	1543
835.682	1557
835.806	1545
835.93	1532
836.054	1569
836.178	1572
836.302	1536
836.426	1544
836.55	1571
836.674	1558
836.798	1550
836.922	1541
837.046	1525
837.17	1552
837.295	1526
837.419	1536
837.543	1537
837.667	1540
837.791	1566
837.915	1516
838.039	1549
838.163	1527
838.287	1537
838.411	1516
838.535	1514
838.659	1526
838.782	1561
838.906	1484
839.03	1510
839.154	1525
839.278	1510
839.402	1517
839.526	1522
839.65	1552
839.774	1513
839.898	1538
840.022	1515
840.146	1492
840.27	1501
840.393	1527
840.517	1505
840.641	1510
840.765	1512
840.889	1526
841.013	1532
841.137	1531
841.261	1491
841.384	1475
841.508	1520
841.632	1506
841.756	1485
841.88	1525
842.004	1493
842.127	1496
842.251	1499
842.375	1499
842.499	1503
842.622	1477
842.746	1509
842.87	1484
842.994	1491
843.118	1482
843.241	1508
843.365	1507
843.489	1531
843.613	1487
843.736	1525
843.86	1503
843.984	1498
844.107	1516
844.231	1507
844.355	1480
844.479	1486
844.602	1495
844.726	1472
844.85	1478
844.973	1500
845.097	1507
845.221	1483
845.344	1486
845.468	1475
845.592	1475
845.715	1492
845.839	1468
845.962	1470
846.086	1486
846.21	1509
846.333	1491
846.457	1490
846.58	1475
846.704	1495
846.828	1478
846.951	1469
847.075	1468
847.198	1498
847.322	1515
847.445	1489
847.569	1494
847.693	1458
847.816	1478
847.94	1490
848.063	1508
848.187	1475
848.31	1465
848.434	1488
848.557	1485
848.681	1491
848.804	1472
848.928	1474
849.051	1472
849.175	1453
849.298	1485
849.421	1485
849.545	1482
849.668	1473
849.792	1460
849.915	1473
850.039	1449
850.162	1456
850.286	1476
850.409	1466
850.532	1470
850.656	1466
850.779	1471
850.902	1470
851.026	1475
851.149	1466
851.273	1469
851.396	1481
851.519	1448
851.643	1441
851.766	1453
851.889	1444
852.013	1464
852.136	1461
852.259	1432
852.383	1478
852.506	1452
852.629	1458
852.753	1427
852.876	1469
852.999	1449
853.122	1489
853.246	1456
853.369	1449
853.492	1460
853.615	1440
853.739	1467
853.862	1437
853.985	1444
854.108	1443
854.232	1455
854.355	1444
854.478	1453
854.601	1431
854.724	1467
854.848	1429
854.971	1465
855.094	1451
855.217	1455
855.34	1448
855.463	1454
855.587	1450
855.71	1442
855.833	1440
855.956	1457
856.079	1441
856.202	1454
856.325	1404
856.449	1457
856.572	1434
856.695	1431
856.818	1449
856.941	1428
857.064	1439
857.187	1409
857.31	1441
857.433	1422
857.556	1388
857.679	1427
857.802	1442
857.925	1429
858.048	1449
858.171	1449
858.294	1440
858.417	1417
858.54	1433
858.663	1418
858.786	1423
858.909	1445
859.032	1415
859.155	1431
859.278	1433
859.401	1417
859.524	1412
859.647	1425
859.77	1430
859.893	1430
860.016	1420
860.139	1404
860.262	1413
860.385	1408
860.508	1422
860.631	1413
860.754	1394
860.876	1401
860.999	1389
861.122	1407
861.245	1414
861.368	1397
861.491	1420
861.614	1397
861.736	1381
861.859	1397
861.982	1389
862.105	1406
862.228	1407
862.351	1433
862.473	1385
862.596	1407
862.719	1430
862.842	1409
862.965	1382
863.087	1425
863.21	1395
863.333	1385
863.456	1403
863.578	1406
863.701	1409
863.824	1389
863.947	1415
864.069	1427
864.192	1396
864.315	1402
864.438	1397
864.56	1415
864.683	1420
864.806	1376
864.928	1403
865.051	1406
865.174	1386
865.296	1376
865.419	1411
865.542	1405
865.664	1393
865.787	1388
865.91	1396
866.032	1398
866.155	1396
866.277	1389
866.4	1394
866.523	1391
866.645	1397
866.768	1398
866.89	1398
867.013	1391
867.136	1404
867.258	1386
867.381	1410
867.503	1388
867.626	1390
867.748	1401
867.871	1389
867.993	1390
868.116	1361
868.238	1406
868.361	1366
868.483	1369
868.606	1397
868.728	1401
868.851	1390
868.973	1386
869.096	1382
869.218	1408
869.341	1402
869.463	1373
869.586	1384
869.708	1377
869.83	1388
869.953	1387
870.075	1365
870.198	1356
870.32	1378
870.442	1376
870.565	1379
870.687	1364
870.81	1370
870.932	1381
871.054	1381
871.177	1375
871.299	1370
871.421	1407
871.544	1361
871.666	1375
871.788	1350
871.911	1378
872.033	1382
872.155	1364
872.278	1370
872.4	1367
872.522	1357
872.645	1377
872.767	1352
872.889	1361
873.011	1369
873.134	1357
873.256	1380
873.378	1368
873.5	1363
873.623	1375
873.745	1406
873.867	1343
873.989	1365
874.111	1352
874.234	1362
874.356	1362
874.478	1375
874.6	1363
874.722	1353
874.845	1378
874.967	1347
875.089	1332
875.211	1347
875.333	1371
875.455	1354
875.577	1353
875.7	1351
875.822	1366
875.944	1361
876.066	1370
876.188	1357
876.31	1346
876.432	1352
876.554	1347
876.676	1348
876.798	1340
876.92	1354
877.042	1345
877.164	1355
877.287	1357
877.409	1356
877.531	1357
877.653	1356
877.775	1363
877.897	1349
878.019	1347
878.141	1366
878.263	1361
878.385	1346
878.507	1347
878.628	1338
878.75	1355
878.872	1318
878.994	1337
879.116	1360
879.238	1370
879.36	1344
879.482	1353
879.604	1349
879.726	1332
879.848	1345
879.97	1346
880.092	1301
880.213	1377
880.335	1349
880.457	1327
880.579	1331
880.701	1344
880.823	1350
880.945	1356
881.066	1332
881.188	1323
881.31	1341
881.432	1331
881.554	1332
881.675	1362
881.797	1354
881.919	1331
882.041	1363
882.163	1337
882.284	1356
882.406	1343
882.528	1344
882.65	1327
882.771	1343
882.893	1332
883.015	1313
883.137	1338
883.258	1313
883.38	1323
883.502	1322
883.623	1320
883.745	1352
883.867	1330
883.988	1325
884.11	1332
884.232	1327
884.353	1330
884.475	1332
884.597	1317
884.718	1312
884.84	1315
884.962	1317
885.083	1321
885.205	1341
885.326	1322
885.448	1337
885.57	1304
885.691	1323
885.813	1310
885.934	1323
886.056	1323
886.177	1338
886.299	1351
886.421	1321
886.542	1303
886.664	1333
886.785	1311
886.907	1320
887.028	1339
887.15	1315
887.271	1316
887.393	1330
887.514	1330
887.636	1323
887.757	1339
887.879	1306
888	1294
888.121	1319
888.243	1321
888.364	1298
888.486	1319
888.607	1302
888.729	1308
888.85	1295
888.971	1321
889.093	1304
889.214	1300
889.336	1313
889.457	1318
889.578	1312
889.7	1317
889.821	1301
889.942	1307
890.064	1317
890.185	1313
890.306	1306
890.428	1305
890.549	1286
890.67	1292
890.792	1305
890.913	1290
891.034	1310
891.156	1289
891.277	1296
891.398	1301
891.519	1302
891.641	1310
891.762	1284
891.883	1270
892.004	1294
892.126	1298
892.247	1304
892.368	1288
892.489	1291
892.61	1302
892.732	1289
892.853	1298
892.974	1297
893.095	1292
893.216	1283
893.337	1279
893.459	1307
893.58	1294
893.701	1275
893.822	1298
893.943	1289
894.064	1283
894.185	1280
894.306	1306
894.428	1283
894.549	1316
894.67	1313
894.791	1270
894.912	1289
895.033	1282
895.154	1290
895.275	1284
895.396	1294
895.517	1305
895.638	1264
895.759	1265
895.88	1289
896.001	1279
896.122	1287
896.243	1273
896.364	1282
896.485	1293
896.606	1285
896.727	1286
896.848	1282
896.969	1269
897.09	1283
897.211	1253
897.332	1285
897.453	1286
897.574	1290
897.695	1270
897.816	1292
897.936	1288
898.057	1278
898.178	1264
898.299	1263
898.42	1283
898.541	1273
898.662	1283
898.783	1269
898.903	1260
899.024	1276
899.145	1255
899.266	1280
899.387	1275
899.507	1288
899.628	1269
899.749	1280
899.87	1264
899.991	1286
900.111	1261
900.232	1267
900.353	1287
900.474	1275
900.594	1246
900.715	1272
900.836	1260
900.957	1268
901.077	1277
901.198	1273
901.319	1252
901.439	1246
901.56	1259
901.681	1258
901.802	1251
901.922	1285
902.043	1245
902.164	1264
902.284	1249
902.405	1249
902.525	1255
902.646	1259
902.767	1263
902.887	1277
903.008	1249
903.129	1257
903.249	1232
903.37	1272
903.49	1257
903.611	1260
903.731	1254
903.852	1252
903.973	1260
904.093	1259
904.214	1270
904.334	1236
904.455	1262
904.575	1257
904.696	1251
904.816	1258
904.937	1257
905.057	1243
905.178	1245
905.298	1267
905.419	1236
905.539	1244
905.66	1248
905.78	1263
905.9	1247
906.021	1257
906.141	1227
906.262	1245
906.382	1238
906.503	1232
906.623	1244
906.743	1237
906.864	1241
906.984	1247
907.104	1245
907.225	1229
907.345	1233
907.466	1226
907.586	1241
907.706	1244
907.827	1237
907.947	1259
908.067	1234
908.188	1221
908.308	1238
908.428	1247
908.548	1232
908.669	1236
908.789	1240
908.909	1247
909.029	1226
909.15	1235
909.27	1204
909.39	1237
909.51	1213
909.631	1216
909.751	1220
909.871	1247
909.991	1230
910.111	1237
910.232	1222
910.352	1226
910.472	1219
910.592	1225
910.712	1229
910.832	1214
910.953	1208
911.073	1212
911.193	1209
911.313	1239
911.433	1217
911.553	1203
911.673	1210
911.793	1211
911.914	1230
912.034	1235
912.154	1217
912.274	1203
912.394	1218
912.514	1220
912.634	1234
912.754	1205
912.874	1237
912.994	1213
913.114	1217
913.234	1202
913.354	1193
913.474	1212
913.594	1196
913.714	1216
913.834	1217
913.954	1197
914.074	1200
914.194	1194
914.314	1213
914.434	1219
914.554	1212
914.674	1199
914.794	1209
914.913	1212
915.033	1201
915.153	1223
915.273	1213
915.393	1207
915.513	1199
915.633	1206
915.753	1204
915.872	1203
915.992	1212
916.112	1203
916.232	1186
916.352	1219
916.472	1200
916.591	1213
916.711	1208
916.831	1202
916.951	1204
917.071	1204
917.19	1206
917.31	1193
917.43	1198
917.55	1205
917.669	1201
917.789	1202
917.909	1191
918.029	1192
918.148	1203
918.268	1209
918.388	1178
918.507	1199
918.627	1189
918.747	1192
918.866	1202
918.986	1199
919.106	1210
919.225	1203
919.345	1204
919.465	1210
919.584	1185
919.704	1207
919.824	1202
919.943	1198
920.063	1191
920.182	1187
920.302	1214
920.421	1194
920.541	1187
920.661	1194
920.78	1203
920.9	1190
921.019	1183
921.139	1179
921.258	1197
921.378	1190
921.497	1195
921.617	1197
921.736	1207
921.856	1192
921.975	1186
922.095	1183
922.214	1180
922.334	1193
922.453	1192
922.573	1208
922.692	1190
922.812	1189
922.931	1202
923.05	1195
923.17	1175
923.289	1191
923.409	1191
923.528	1176
923.647	1203
923.767	1179
923.886	1185
924.005	1193
924.125	1192
924.244	1178
924.363	1174
924.483	1201
924.602	1181
924.721	1179
924.841	1190
924.96	1193
925.079	1182
925.199	1179
925.318	1172
925.437	1190
925.556	1191
925.676	1180
925.795	1167
925.914	1182
926.033	1191
926.153	1185
926.272	1186
926.391	1182
926.51	1181
926.629	1191
926.749	1168
926.868	1198
926.987	1174
927.106	1195
927.225	1189
927.345	1190
927.464	1180
927.583	1180
927.702	1190
927.821	1193
927.94	1192
928.059	1190
928.178	1194
928.297	1191
928.417	1192
928.536	1182
928.655	1183
928.774	1168
928.893	1166
929.012	1165
929.131	1170
929.25	1187
929.369	1166
929.488	1188
929.607	1175
929.726	1182
929.845	1165
929.964	1175
930.083	1181
930.202	1175
930.321	1163
930.44	1169
930.559	1153
930.678	1168
930.797	1168
930.916	1161
931.035	1172
931.154	1186
931.272	1155
931.391	1174
931.51	1181
931.629	1169
931.748	1171
931.867	1170
931.986	1160
932.105	1173
932.223	1162
932.342	1177
932.461	1160
932.58	1164
932.699	1174
932.818	1189
932.936	1167
933.055	1168
933.174	1167
933.293	1169
933.412	1169
933.53	1177
933.649	1171
933.768	1180
933.887	1162
934.005	1151
934.124	1162
934.243	1162
934.361	1155
934.48	1174
934.599	1155
934.718	1159
934.836	1165
934.955	1157
935.074	1161
935.192	1168
935.311	1151
935.43	1166
935.548	1166
935.667	1154
935.785	1159
935.904	1156
936.023	1160
936.141	1164
936.26	1176
936.378	1156
936.497	1167
936.616	1168
936.734	1166
936.853	1161
936.971	1161
937.09	1160
937.208	1170
937.327	1168
937.445	1140
937.564	1145
937.682	1153
937.801	1158
937.919	1174
938.038	1148
938.156	1158
938.275	1145
938.393	1160
938.512	1155
938.63	1167
938.749	1154
938.867	1158
938.986	1147
939.104	1175
939.222	1155
939.341	1157
939.459	1144
939.577	1156
939.696	1175
939.814	1158
939.933	1160
940.051	1149
940.169	1151
940.288	1143
940.406	1148
940.524	1138
940.643	1159
940.761	1158
940.879	1153
940.998	1163
941.116	1141
941.234	1154
941.352	1156
941.471	1141
941.589	1148
941.707	1149
941.825	1143
941.944	1156
942.062	1139
942.18	1144
942.298	1137
942.416	1148
942.535	1153
942.653	1140
942.771	1152
942.889	1149
943.007	1150
943.125	1137
943.244	1144
943.362	1133
943.48	1137
943.598	1149
943.716	1139
943.834	1151
943.952	1140
944.07	1146
944.189	1151
944.307	1136
944.425	1138
944.543	1157
944.661	1142
944.779	1139
944.897	1127
945.015	1134
945.133	1140
945.251	1135
945.369	1149
945.487	1135
945.605	1141
945.723	1136
945.841	1136
945.959	1134
946.077	1131
946.195	1144
946.313	1137
946.431	1129
946.549	1136
946.667	1127
946.785	1137
946.902	1122
947.02	1115
947.138	1136
947.256	1129
947.374	1137
947.492	1143
947.61	1133
947.728	1134
947.845	1123
947.963	1141
948.081	1130
948.199	1126
948.317	1137
948.435	1122
948.552	1127
948.67	1123
948.788	1116
948.906	1130
949.024	1128
949.141	1125
949.259	1133
949.377	1129
949.495	1122
949.612	1136
949.73	1136
949.848	1131
949.965	1118
950.083	1135
950.201	1127
950.318	1139
950.436	1143
950.554	1131
950.672	1125
950.789	1132
950.907	1118
951.024	1117
951.142	1121
951.26	1125
951.377	1126
951.495	1120
951.613	1126
951.73	1122
951.848	1121
951.965	1132
952.083	1129
952.2	1127
952.318	1113
952.436	1115
952.553	1125
952.671	1116
952.788	1118
952.906	1110
953.023	1117
953.141	1116
953.258	1118
953.376	1127
953.493	1121
953.611	1115
953.728	1115
953.845	1110
953.963	1110
954.08	1110
954.198	1113
