Wavelength	PL390-MAO-Cr-Mau5
nm	Counts
449.342	1017
449.472	1023
449.602	1021
449.732	1015
449.862	1020
449.992	1013
450.122	1020
450.252	1015
450.382	1019
450.512	1020
450.642	1015
450.772	1015
450.902	1017
451.032	1021
451.162	1014
451.292	1014
451.422	1019
451.552	1014
451.682	1012
451.812	1018
451.942	1012
452.071	1016
452.201	1016
452.331	1023
452.461	1018
452.591	1015
452.721	1016
452.851	1021
452.981	1011
453.111	1019
453.241	1018
453.371	1012
453.501	1019
453.63	1016
453.76	1018
453.89	1015
454.02	1012
454.15	1027
454.28	1020
454.41	1016
454.539	1022
454.669	1017
454.799	1009
454.929	1017
455.059	1026
455.189	1024
455.318	1019
455.448	1018
455.578	1026
455.708	1018
455.838	1019
455.968	1019
456.097	1021
456.227	1017
456.357	1018
456.487	1019
456.617	1014
456.746	1023
456.876	1016
457.006	1017
457.136	1025
457.265	1018
457.395	1015
457.525	1016
457.655	1024
457.784	1012
457.914	1021
458.044	1027
458.174	1018
458.303	1013
458.433	1016
458.563	1019
458.692	1017
458.822	1019
458.952	1013
459.081	1017
459.211	1024
459.341	1012
459.47	1015
459.6	1021
459.73	1022
459.86	1016
459.989	1025
460.119	1020
460.248	1014
460.378	1017
460.508	1015
460.637	1017
460.767	1018
460.897	1012
461.026	1023
461.156	1016
461.286	1021
461.415	1018
461.545	1021
461.674	1018
461.804	1022
461.933	1020
462.063	1025
462.193	1021
462.322	1018
462.452	1017
462.581	1021
462.711	1021
462.84	1020
462.97	1016
463.1	1022
463.229	1024
463.359	1024
463.488	1023
463.618	1016
463.747	1017
463.877	1029
464.006	1013
464.136	1014
464.265	1019
464.395	1016
464.524	1017
464.654	1013
464.783	1024
464.913	1024
465.042	1017
465.172	1017
465.301	1022
465.431	1016
465.56	1017
465.69	1015
465.819	1025
465.948	1011
466.078	1017
466.207	1023
466.337	1020
466.466	1022
466.596	1027
466.725	1016
466.854	1017
466.984	1031
467.113	1017
467.243	1016
467.372	1023
467.501	1020
467.631	1022
467.76	1011
467.889	1018
468.019	1022
468.148	1024
468.278	1018
468.407	1017
468.536	1015
468.666	1013
468.795	1021
468.924	1023
469.054	1016
469.183	1022
469.312	1020
469.442	1017
469.571	1018
469.7	1025
469.829	1021
469.959	1017
470.088	1024
470.217	1016
470.347	1027
470.476	1016
470.605	1016
470.734	1019
470.864	1020
470.993	1018
471.122	1022
471.251	1022
471.381	1022
471.51	1013
471.639	1021
471.768	1020
471.898	1019
472.027	1025
472.156	1021
472.285	1018
472.414	1022
472.544	1022
472.673	1024
472.802	1013
472.931	1013
473.06	1019
473.189	1024
473.319	1024
473.448	1022
473.577	1021
473.706	1016
473.835	1022
473.964	1021
474.094	1024
474.223	1014
474.352	1019
474.481	1021
474.61	1018
474.739	1018
474.868	1030
474.997	1028
475.126	1022
475.256	1016
475.385	1020
475.514	1015
475.643	1020
475.772	1019
475.901	1025
476.03	1029
476.159	1023
476.288	1018
476.417	1020
476.546	1031
476.675	1022
476.804	1033
476.933	1022
477.062	1019
477.191	1025
477.32	1021
477.449	1028
477.578	1018
477.707	1014
477.836	1030
477.965	1010
478.094	1025
478.223	1023
478.352	1028
478.481	1028
478.61	1022
478.739	1023
478.868	1023
478.997	1019
479.126	1025
479.255	1025
479.384	1021
479.513	1024
479.642	1021
479.771	1027
479.9	1021
480.028	1021
480.157	1024
480.286	1022
480.415	1028
480.544	1024
480.673	1024
480.802	1015
480.931	1024
481.06	1023
481.188	1025
481.317	1018
481.446	1019
481.575	1029
481.704	1024
481.833	1018
481.961	1019
482.09	1027
482.219	1027
482.348	1020
482.477	1021
482.606	1024
482.734	1016
482.863	1019
482.992	1023
483.121	1023
483.249	1027
483.378	1031
483.507	1026
483.636	1021
483.765	1025
483.893	1019
484.022	1024
484.151	1022
484.28	1023
484.408	1028
484.537	1027
484.666	1023
484.794	1024
484.923	1024
485.052	1028
485.181	1034
485.309	1020
485.438	1019
485.567	1020
485.695	1019
485.824	1021
485.953	1027
486.081	1024
486.21	1021
486.339	1022
486.467	1027
486.596	1028
486.725	1025
486.853	1020
486.982	1023
487.11	1020
487.239	1024
487.368	1024
487.496	1023
487.625	1022
487.754	1017
487.882	1020
488.011	1024
488.139	1027
488.268	1029
488.396	1019
488.525	1015
488.654	1014
488.782	1025
488.911	1016
489.039	1025
489.168	1024
489.296	1034
489.425	1025
489.553	1021
489.682	1021
489.81	1028
489.939	1026
490.067	1026
490.196	1022
490.324	1024
490.453	1025
490.581	1024
490.71	1023
490.838	1024
490.967	1025
491.095	1025
491.224	1021
491.352	1024
491.481	1034
491.609	1027
491.738	1025
491.866	1022
491.994	1019
492.123	1021
492.251	1034
492.38	1032
492.508	1024
492.636	1025
492.765	1023
492.893	1032
493.022	1023
493.15	1024
493.278	1020
493.407	1017
493.535	1024
493.663	1027
493.792	1026
493.92	1027
494.049	1028
494.177	1023
494.305	1026
494.434	1032
494.562	1034
494.69	1032
494.818	1021
494.947	1024
495.075	1026
495.203	1030
495.332	1029
495.46	1024
495.588	1037
495.716	1025
495.845	1030
495.973	1024
496.101	1031
496.23	1024
496.358	1025
496.486	1019
496.614	1026
496.742	1030
496.871	1024
496.999	1025
497.127	1026
497.255	1031
497.384	1028
497.512	1030
497.64	1035
497.768	1028
497.896	1027
498.024	1028
498.153	1031
498.281	1025
498.409	1026
498.537	1036
498.665	1033
498.793	1030
498.922	1027
499.05	1027
499.178	1031
499.306	1033
499.434	1031
499.562	1030
499.69	1029
499.818	1024
499.947	1022
500.075	1033
500.203	1025
500.331	1032
500.459	1023
500.587	1027
500.715	1033
500.843	1026
500.971	1032
501.099	1028
501.227	1028
501.355	1027
501.483	1024
501.611	1028
501.739	1022
501.867	1029
501.995	1032
502.123	1029
502.251	1027
502.379	1024
502.507	1024
502.635	1027
502.763	1022
502.891	1031
503.019	1038
503.147	1030
503.275	1035
503.403	1025
503.531	1036
503.659	1026
503.787	1024
503.915	1024
504.043	1033
504.171	1033
504.299	1029
504.426	1030
504.554	1033
504.682	1028
504.81	1024
504.938	1031
505.066	1024
505.194	1026
505.322	1031
505.449	1025
505.577	1032
505.705	1031
505.833	1032
505.961	1019
506.089	1024
506.217	1029
506.344	1024
506.472	1031
506.6	1037
506.728	1032
506.856	1031
506.983	1030
507.111	1029
507.239	1032
507.367	1024
507.495	1025
507.622	1022
507.75	1035
507.878	1029
508.006	1029
508.133	1029
508.261	1026
508.389	1032
508.516	1035
508.644	1032
508.772	1029
508.9	1027
509.027	1030
509.155	1027
509.283	1031
509.41	1033
509.538	1036
509.666	1029
509.793	1030
509.921	1027
510.049	1025
510.176	1030
510.304	1031
510.432	1028
510.559	1029
510.687	1032
510.815	1025
510.942	1025
511.07	1032
511.197	1034
511.325	1027
511.453	1034
511.58	1031
511.708	1035
511.835	1026
511.963	1038
512.091	1037
512.218	1029
512.346	1030
512.473	1031
512.601	1030
512.728	1027
512.856	1036
512.983	1029
513.111	1028
513.238	1030
513.366	1039
513.494	1032
513.621	1025
513.749	1022
513.876	1029
514.003	1030
514.131	1028
514.258	1024
514.386	1032
514.513	1025
514.641	1033
514.768	1031
514.896	1032
515.023	1027
515.151	1034
515.278	1024
515.405	1029
515.533	1034
515.66	1033
515.788	1028
515.915	1037
516.042	1032
516.17	1031
516.297	1026
516.425	1036
516.552	1029
516.679	1025
516.807	1036
516.934	1033
517.061	1027
517.189	1032
517.316	1031
517.443	1033
517.571	1024
517.698	1028
517.825	1029
517.953	1033
518.08	1033
518.207	1039
518.335	1030
518.462	1024
518.589	1031
518.716	1033
518.844	1020
518.971	1027
519.098	1035
519.226	1034
519.353	1029
519.48	1036
519.607	1035
519.734	1037
519.862	1036
519.989	1026
520.116	1034
520.243	1036
520.371	1033
520.498	1028
520.625	1032
520.752	1029
520.879	1036
521.006	1033
521.134	1035
521.261	1030
521.388	1037
521.515	1033
521.642	1027
521.769	1035
521.896	1034
522.024	1027
522.151	1031
522.278	1031
522.405	1035
522.532	1030
522.659	1030
522.786	1034
522.913	1039
523.04	1033
523.167	1030
523.295	1042
523.422	1034
523.549	1027
523.676	1038
523.803	1037
523.93	1035
524.057	1033
524.184	1026
524.311	1028
524.438	1036
524.565	1044
524.692	1037
524.819	1035
524.946	1028
525.073	1026
525.2	1026
525.327	1037
525.454	1030
525.581	1033
525.708	1035
525.835	1033
525.962	1036
526.088	1031
526.215	1031
526.342	1037
526.469	1030
526.596	1026
526.723	1036
526.85	1035
526.977	1027
527.104	1029
527.231	1032
527.358	1030
527.484	1034
527.611	1044
527.738	1027
527.865	1033
527.992	1036
528.119	1027
528.246	1040
528.372	1029
528.499	1031
528.626	1031
528.753	1026
528.88	1028
529.006	1034
529.133	1028
529.26	1023
529.387	1038
529.514	1030
529.64	1032
529.767	1041
529.894	1028
530.021	1041
530.147	1035
530.274	1037
530.401	1030
530.528	1030
530.654	1033
530.781	1028
530.908	1024
531.034	1026
531.161	1031
531.288	1031
531.414	1039
531.541	1042
531.668	1024
531.795	1039
531.921	1028
532.048	1043
532.174	1032
532.301	1036
532.428	1031
532.554	1033
532.681	1033
532.808	1028
532.934	1036
533.061	1032
533.187	1030
533.314	1033
533.441	1032
533.567	1030
533.694	1029
533.82	1029
533.947	1041
534.074	1034
534.2	1034
534.327	1036
534.453	1031
534.58	1032
534.706	1025
534.833	1031
534.959	1036
535.086	1036
535.212	1036
535.339	1031
535.465	1032
535.592	1028
535.718	1035
535.845	1031
535.971	1037
536.098	1029
536.224	1036
536.351	1029
536.477	1030
536.604	1028
536.73	1025
536.856	1030
536.983	1034
537.109	1032
537.236	1032
537.362	1037
537.488	1035
537.615	1037
537.741	1032
537.868	1029
537.994	1033
538.12	1038
538.247	1032
538.373	1032
538.499	1036
538.626	1030
538.752	1027
538.878	1037
539.005	1040
539.131	1034
539.257	1029
539.384	1035
539.51	1038
539.636	1028
539.763	1035
539.889	1038
540.015	1038
540.141	1039
540.268	1028
540.394	1037
540.52	1024
540.646	1033
540.773	1041
540.899	1029
541.025	1028
541.151	1035
541.278	1030
541.404	1030
541.53	1035
541.656	1032
541.782	1033
541.909	1027
542.035	1033
542.161	1032
542.287	1045
542.413	1033
542.539	1030
542.665	1028
542.792	1031
542.918	1041
543.044	1031
543.17	1033
543.296	1040
543.422	1040
543.548	1041
543.674	1038
543.801	1032
543.927	1032
544.053	1028
544.179	1034
544.305	1041
544.431	1030
544.557	1045
544.683	1036
544.809	1032
544.935	1034
545.061	1040
545.187	1032
545.313	1033
545.439	1031
545.565	1033
545.691	1041
545.817	1032
545.943	1033
546.069	1030
546.195	1035
546.321	1038
546.447	1042
546.573	1035
546.699	1034
546.825	1030
546.951	1036
547.077	1036
547.203	1037
547.329	1035
547.454	1034
547.58	1036
547.706	1033
547.832	1031
547.958	1032
548.084	1027
548.21	1038
548.336	1032
548.462	1040
548.587	1034
548.713	1038
548.839	1032
548.965	1038
549.091	1040
549.217	1031
549.342	1032
549.468	1037
549.594	1026
549.72	1041
549.846	1041
549.971	1033
550.097	1034
550.223	1036
550.349	1030
550.474	1033
550.6	1031
550.726	1033
550.852	1038
550.977	1036
551.103	1033
551.229	1033
551.355	1030
551.48	1027
551.606	1033
551.732	1035
551.857	1030
551.983	1033
552.109	1039
552.234	1038
552.36	1043
552.486	1034
552.611	1036
552.737	1037
552.863	1035
552.988	1042
553.114	1027
553.24	1036
553.365	1028
553.491	1033
553.616	1026
553.742	1035
553.868	1035
553.993	1029
554.119	1031
554.244	1039
554.37	1033
554.495	1032
554.621	1034
554.746	1034
554.872	1029
554.998	1030
555.123	1034
555.249	1031
555.374	1035
555.5	1032
555.625	1035
555.751	1032
555.876	1030
556.002	1041
556.127	1035
556.252	1030
556.378	1027
556.503	1041
556.629	1038
556.754	1032
556.88	1038
557.005	1032
557.131	1034
557.256	1034
557.381	1038
557.507	1036
557.632	1047
557.758	1034
557.883	1034
558.008	1035
558.134	1032
558.259	1029
558.384	1037
558.51	1032
558.635	1042
558.76	1029
558.886	1035
559.011	1031
559.136	1035
559.262	1035
559.387	1037
559.512	1031
559.638	1038
559.763	1026
559.888	1035
560.013	1038
560.139	1030
560.264	1035
560.389	1038
560.514	1036
560.64	1037
560.765	1043
560.89	1033
561.015	1038
561.141	1039
561.266	1032
561.391	1033
561.516	1035
561.641	1034
561.767	1035
561.892	1031
562.017	1037
562.142	1036
562.267	1034
562.392	1041
562.518	1040
562.643	1033
562.768	1032
562.893	1044
563.018	1038
563.143	1033
563.268	1033
563.393	1033
563.518	1026
563.644	1039
563.769	1034
563.894	1039
564.019	1033
564.144	1038
564.269	1040
564.394	1031
564.519	1038
564.644	1034
564.769	1039
564.894	1032
565.019	1034
565.144	1034
565.269	1037
565.394	1029
565.519	1029
565.644	1038
565.769	1033
565.894	1035
566.019	1034
566.144	1037
566.269	1032
566.394	1034
566.519	1046
566.644	1044
566.769	1040
566.893	1032
567.018	1030
567.143	1031
567.268	1031
567.393	1028
567.518	1031
567.643	1044
567.768	1036
567.893	1026
568.017	1037
568.142	1036
568.267	1036
568.392	1046
568.517	1037
568.642	1044
568.766	1034
568.891	1037
569.016	1030
569.141	1033
569.266	1029
569.39	1028
569.515	1040
569.64	1039
569.765	1036
569.889	1034
570.014	1038
570.139	1026
570.264	1034
570.388	1038
570.513	1038
570.638	1037
570.762	1036
570.887	1035
571.012	1029
571.137	1037
571.261	1037
571.386	1032
571.511	1035
571.635	1033
571.76	1037
571.885	1042
572.009	1037
572.134	1036
572.258	1033
572.383	1036
572.508	1026
572.632	1035
572.757	1040
572.881	1031
573.006	1028
573.131	1028
573.255	1032
573.38	1046
573.504	1042
573.629	1038
573.753	1043
573.878	1039
574.003	1027
574.127	1031
574.252	1035
574.376	1029
574.501	1035
574.625	1034
574.75	1035
574.874	1034
574.999	1038
575.123	1033
575.248	1028
575.372	1035
575.496	1039
575.621	1037
575.745	1041
575.87	1032
575.994	1041
576.119	1031
576.243	1038
576.367	1041
576.492	1038
576.616	1034
576.741	1035
576.865	1045
576.989	1040
577.114	1041
577.238	1036
577.362	1033
577.487	1032
577.611	1038
577.735	1040
577.86	1035
577.984	1046
578.108	1032
578.233	1034
578.357	1038
578.481	1041
578.606	1036
578.73	1045
578.854	1039
578.978	1034
578.977	1027
579.106	1027
579.234	1031
579.362	1035
579.491	1034
579.619	1024
579.747	1024
579.875	1031
580.004	1040
580.132	1027
580.26	1031
580.388	1029
580.517	1032
580.645	1036
580.773	1032
580.901	1025
581.03	1022
581.158	1026
581.286	1028
581.414	1031
581.542	1032
581.671	1029
581.799	1024
581.927	1037
582.055	1029
582.183	1024
582.312	1034
582.44	1039
582.568	1034
582.696	1024
582.824	1026
582.952	1028
583.08	1032
583.209	1026
583.337	1031
583.465	1032
583.593	1033
583.721	1038
583.849	1036
583.977	1045
584.105	1032
584.233	1034
584.362	1032
584.49	1035
584.618	1036
584.746	1037
584.874	1037
585.002	1034
585.13	1033
585.258	1040
585.386	1032
585.514	1037
585.642	1038
585.77	1039
585.898	1039
586.026	1036
586.154	1049
586.282	1042
586.41	1039
586.538	1042
586.666	1033
586.794	1032
586.922	1046
587.05	1035
587.178	1036
587.306	1040
587.434	1038
587.562	1034
587.69	1044
587.818	1032
587.946	1036
588.074	1035
588.202	1029
588.33	1041
588.458	1043
588.586	1046
588.714	1043
588.842	1045
588.97	1038
589.097	1041
589.225	1051
589.353	1044
589.481	1035
589.609	1032
589.737	1042
589.865	1045
589.993	1045
590.121	1051
590.248	1051
590.376	1032
590.504	1049
590.632	1043
590.76	1038
590.888	1041
591.015	1050
591.143	1050
591.271	1038
591.399	1049
591.527	1054
591.655	1043
591.782	1050
591.91	1051
592.038	1042
592.166	1061
592.294	1053
592.421	1042
592.549	1055
592.677	1050
592.805	1059
592.932	1039
593.06	1053
593.188	1054
593.316	1060
593.443	1040
593.571	1047
593.699	1063
593.826	1055
593.954	1051
594.082	1053
594.21	1059
594.337	1056
594.465	1056
594.593	1052
594.72	1056
594.848	1062
594.976	1054
595.103	1058
595.231	1058
595.359	1058
595.486	1070
595.614	1053
595.742	1070
595.869	1062
595.997	1063
596.124	1055
596.252	1063
596.38	1059
596.507	1058
596.635	1061
596.763	1062
596.89	1066
597.018	1065
597.145	1056
597.273	1070
597.4	1055
597.528	1057
597.656	1067
597.783	1065
597.911	1070
598.038	1063
598.166	1057
598.293	1066
598.421	1064
598.548	1071
598.676	1067
598.803	1068
598.931	1058
599.058	1065
599.186	1063
599.313	1071
599.441	1077
599.568	1073
599.696	1060
599.823	1073
599.951	1074
600.078	1070
600.206	1079
600.333	1084
600.461	1086
600.588	1081
600.715	1072
600.843	1078
600.97	1083
601.098	1082
601.225	1065
601.353	1094
601.48	1065
601.607	1087
601.735	1079
601.862	1074
601.99	1086
602.117	1082
602.244	1084
602.372	1091
602.499	1085
602.626	1078
602.754	1089
602.881	1112
603.008	1071
603.136	1090
603.263	1080
603.39	1088
603.518	1085
603.645	1084
603.772	1081
603.9	1089
604.027	1088
604.154	1087
604.281	1083
604.409	1089
604.536	1097
604.663	1080
604.791	1099
604.918	1088
605.045	1091
605.172	1087
605.3	1108
605.427	1095
605.554	1096
605.681	1106
605.809	1100
605.936	1120
606.063	1094
606.19	1092
606.317	1097
606.445	1112
606.572	1096
606.699	1093
606.826	1105
606.953	1103
607.08	1108
607.208	1119
607.335	1105
607.462	1121
607.589	1113
607.716	1115
607.843	1105
607.97	1116
608.098	1112
608.225	1128
608.352	1114
608.479	1111
608.606	1106
608.733	1121
608.86	1104
608.987	1112
609.114	1124
609.241	1116
609.369	1119
609.496	1122
609.623	1105
609.75	1121
609.877	1131
610.004	1124
610.131	1118
610.258	1123
610.385	1117
610.512	1130
610.639	1117
610.766	1127
610.893	1138
611.02	1125
611.147	1133
611.274	1113
611.401	1127
611.528	1125
611.655	1140
611.782	1139
611.909	1139
612.036	1132
612.163	1127
612.29	1136
612.417	1135
612.543	1136
612.67	1155
612.797	1128
612.924	1130
613.051	1125
613.178	1133
613.305	1144
613.432	1145
613.559	1143
613.686	1146
613.813	1141
613.939	1150
614.066	1149
614.193	1154
614.32	1155
614.447	1150
614.574	1155
614.701	1159
614.827	1151
614.954	1155
615.081	1154
615.208	1157
615.335	1166
615.461	1143
615.588	1143
615.715	1174
615.842	1156
615.969	1173
616.095	1182
616.222	1166
616.349	1167
616.476	1174
616.602	1180
616.729	1170
616.856	1159
616.983	1171
617.109	1165
617.236	1164
617.363	1182
617.49	1196
617.616	1170
617.743	1165
617.87	1182
617.996	1180
618.123	1166
618.25	1181
618.376	1183
618.503	1193
618.63	1196
618.756	1178
618.883	1182
619.01	1188
619.136	1175
619.263	1185
619.39	1196
619.516	1204
619.643	1200
619.769	1199
619.896	1197
620.023	1210
620.149	1212
620.276	1205
620.402	1187
620.529	1186
620.656	1209
620.782	1218
620.909	1208
621.035	1228
621.162	1199
621.288	1220
621.415	1203
621.541	1227
621.668	1241
621.795	1229
621.921	1224
622.048	1232
622.174	1230
622.301	1229
622.427	1238
622.554	1235
622.68	1242
622.807	1230
622.933	1230
623.059	1245
623.186	1236
623.312	1226
623.439	1245
623.565	1243
623.692	1257
623.818	1250
623.945	1239
624.071	1240
624.197	1257
624.324	1254
624.45	1233
624.577	1259
624.703	1257
624.829	1272
624.956	1251
625.082	1244
625.209	1253
625.335	1259
625.461	1266
625.588	1271
625.714	1277
625.84	1263
625.967	1267
626.093	1274
626.219	1280
626.346	1278
626.472	1278
626.598	1270
626.725	1276
626.851	1291
626.977	1285
627.103	1291
627.23	1280
627.356	1297
627.482	1282
627.608	1280
627.735	1285
627.861	1309
627.987	1302
628.113	1296
628.24	1299
628.366	1316
628.492	1309
628.618	1320
628.745	1323
628.871	1296
628.997	1325
629.123	1304
629.249	1334
629.376	1309
629.502	1344
629.628	1340
629.754	1336
629.88	1350
630.006	1330
630.132	1322
630.259	1347
630.385	1344
630.511	1346
630.637	1344
630.763	1344
630.889	1346
631.015	1357
631.141	1382
631.268	1360
631.394	1373
631.52	1379
631.646	1373
631.772	1380
631.898	1364
632.024	1380
632.15	1383
632.276	1371
632.402	1415
632.528	1391
632.654	1397
632.78	1399
632.906	1391
633.032	1411
633.158	1391
633.284	1416
633.41	1407
633.536	1401
633.662	1418
633.788	1408
633.914	1417
634.04	1440
634.166	1397
634.292	1432
634.418	1408
634.544	1437
634.67	1440
634.796	1426
634.922	1456
635.048	1413
635.173	1446
635.299	1471
635.425	1433
635.551	1458
635.677	1469
635.803	1458
635.929	1450
636.055	1497
636.181	1490
636.306	1480
636.432	1452
636.558	1480
636.684	1472
636.81	1465
636.936	1476
637.061	1480
637.187	1482
637.313	1498
637.439	1479
637.565	1502
637.69	1485
637.816	1507
637.942	1516
638.068	1500
638.193	1554
638.319	1536
638.445	1532
638.571	1545
638.696	1520
638.822	1536
638.948	1573
639.074	1551
639.199	1540
639.325	1559
639.451	1536
639.577	1551
639.702	1556
639.828	1595
639.954	1579
640.079	1579
640.205	1596
640.331	1588
640.456	1587
640.582	1617
640.708	1591
640.833	1604
640.959	1623
641.084	1605
641.21	1643
641.336	1645
641.461	1601
641.587	1631
641.712	1638
641.838	1644
641.964	1652
642.089	1672
642.215	1652
642.34	1651
642.466	1673
642.592	1707
642.717	1662
642.843	1677
642.968	1698
643.094	1719
643.219	1693
643.345	1720
643.47	1720
643.596	1747
643.721	1722
643.847	1744
643.972	1751
644.098	1771
644.223	1771
644.349	1772
644.474	1796
644.6	1801
644.725	1788
644.85	1821
644.976	1838
645.101	1843
645.227	1809
645.352	1812
645.478	1838
645.603	1813
645.728	1861
645.854	1838
645.979	1879
646.105	1853
646.23	1887
646.355	1883
646.481	1885
646.606	1904
646.731	1878
646.857	1931
646.982	1898
647.107	1909
647.233	1923
647.358	1926
647.483	1960
647.609	1952
647.734	2001
647.859	1962
647.985	1994
648.11	2026
648.235	2012
648.36	1988
648.486	2018
648.611	2040
648.736	2036
648.862	2062
648.987	2106
649.112	2070
649.237	2132
649.362	2139
649.488	2123
649.613	2145
649.738	2144
649.863	2146
649.988	2174
650.114	2169
650.239	2200
650.364	2258
650.489	2200
650.614	2221
650.74	2258
650.865	2248
650.99	2272
651.115	2306
651.24	2274
651.365	2319
651.49	2365
651.615	2385
651.741	2349
651.866	2357
651.991	2414
652.116	2424
652.241	2385
652.366	2391
652.491	2388
652.616	2399
652.741	2442
652.866	2415
652.991	2487
653.116	2469
653.241	2422
653.366	2453
653.491	2465
653.616	2497
653.741	2488
653.866	2471
653.991	2521
654.116	2545
654.241	2550
654.366	2552
654.491	2569
654.616	2588
654.741	2588
654.866	2590
654.991	2586
655.116	2644
655.241	2669
655.366	2683
655.491	2665
655.616	2738
655.741	2761
655.866	2732
655.99	2844
656.115	2830
656.24	2836
656.365	2906
656.49	2887
656.615	2934
656.74	3002
656.865	2974
656.989	3004
657.114	3037
657.239	3072
657.364	3077
657.489	3097
657.614	3104
657.738	3129
657.863	3150
657.988	3188
658.113	3208
658.238	3271
658.362	3206
658.487	3320
658.612	3271
658.737	3281
658.861	3347
658.986	3416
659.111	3396
659.236	3437
659.36	3434
659.485	3493
659.61	3490
659.734	3569
659.859	3599
659.984	3639
660.108	3712
660.233	3710
660.358	3771
660.482	3798
660.607	3917
660.732	3911
660.856	4018
660.981	3988
661.106	4041
661.23	4071
661.355	4060
661.48	4184
661.604	4288
661.729	4295
661.853	4278
661.978	4319
662.103	4304
662.227	4443
662.352	4421
662.476	4428
662.601	4521
662.725	4476
662.85	4528
662.974	4521
663.099	4606
663.224	4589
663.348	4540
663.473	4608
663.597	4667
663.722	4648
663.846	4667
663.971	4786
664.095	4782
664.219	4767
664.344	4878
664.468	4891
664.593	4934
664.717	4864
664.842	5009
664.966	5030
665.091	5041
665.215	5018
665.339	5083
665.464	5184
665.588	5182
665.713	5156
665.837	5220
665.961	5209
666.086	5211
666.21	5274
666.335	5290
666.459	5374
666.583	5378
666.708	5381
666.832	5358
666.956	5389
667.081	5478
667.205	5481
667.329	5456
667.454	5409
667.578	5442
667.702	5556
667.826	5486
667.951	5561
668.075	5614
668.199	5606
668.324	5638
668.448	5651
668.572	5612
668.696	5682
668.82	5625
668.945	5738
669.069	5776
669.193	5770
669.317	5782
669.442	5733
669.566	5855
669.69	5836
669.814	5943
669.938	5905
670.062	6050
670.187	5975
670.311	6089
670.435	6097
670.559	6148
670.683	6253
670.807	6271
670.931	6360
671.056	6483
671.18	6542
671.304	6691
671.428	6756
671.552	6809
671.676	6802
671.8	6886
671.924	7022
672.048	7093
672.172	7140
672.296	7143
672.42	7215
672.544	7331
672.669	7379
672.793	7502
672.917	7558
673.041	7586
673.165	7777
673.289	7937
673.413	7964
673.537	8059
673.661	8107
673.785	8203
673.908	8353
674.032	8420
674.156	8469
674.28	8626
674.404	8699
674.528	8755
674.652	8863
674.776	8938
674.9	9040
675.024	9126
675.148	9196
675.272	9191
675.396	9226
675.519	9291
675.643	9323
675.767	9324
675.891	9337
676.015	9433
676.139	9385
676.263	9331
676.386	9263
676.51	9222
676.634	9193
676.758	9204
676.882	9272
677.005	9062
677.129	9130
677.253	9032
677.377	8944
677.501	8992
677.624	9015
677.748	8879
677.872	8820
677.996	8780
678.119	8689
678.243	8713
678.367	8624
678.491	8474
678.614	8593
678.738	8494
678.862	8389
678.985	8298
679.109	8259
679.233	8256
679.356	8176
679.48	8102
679.604	8098
679.727	8034
679.851	7985
679.975	7850
680.098	7908
680.222	7781
680.346	7757
680.469	7724
680.593	7665
680.716	7626
680.84	7611
680.963	7424
681.087	7574
681.211	7452
681.334	7571
681.458	7470
681.581	7478
681.705	7357
681.828	7354
681.952	7480
682.075	7443
682.199	7467
682.322	7508
682.446	7544
682.569	7582
682.693	7654
682.816	7719
682.94	7923
683.063	8002
683.187	8168
683.31	8677
683.434	8961
683.557	9467
683.681	10014
683.804	10659
683.928	11371
684.051	12387
684.174	13159
684.298	14434
684.421	15701
684.545	16800
684.668	18152
684.791	19448
684.915	20649
685.038	21969
685.161	23052
685.285	24095
685.408	25414
685.531	26256
685.655	27401
685.778	28547
685.901	29336
686.025	30374
686.148	31471
686.271	32479
686.395	33617
686.518	34610
686.641	35622
686.764	36452
686.888	37576
687.011	38246
687.134	38963
687.257	39522
687.381	40086
687.504	40585
687.627	40715
687.75	41075
687.873	41376
687.997	41376
688.12	41292
688.243	41270
688.366	41289
688.489	41177
688.613	40755
688.736	40467
688.859	39688
688.982	39449
689.105	38879
689.228	38178
689.351	37600
689.475	37035
689.598	36417
689.721	35694
689.844	35023
689.967	34310
690.09	33562
690.213	32794
690.336	32059
690.459	31416
690.582	30903
690.705	30190
690.828	29467
690.951	29110
691.074	28632
691.197	28172
691.32	27925
691.443	27316
691.566	27137
691.689	26657
691.812	26663
691.935	26381
692.058	26030
692.181	26045
692.304	25744
692.427	25752
692.55	25378
692.673	25298
692.796	25182
692.919	25015
693.042	24846
693.165	24793
693.288	24324
693.411	24507
693.533	24106
693.656	23961
693.779	24017
693.902	23824
694.025	23551
694.148	23375
694.271	23018
694.393	22647
694.516	22536
694.639	22333
694.762	22232
694.885	22145
695.008	21794
695.13	21691
695.253	21463
695.376	21376
695.499	21165
695.622	21114
695.744	20967
695.867	20848
695.99	20814
696.113	20719
696.235	20544
696.358	20486
696.481	20541
696.603	20579
696.726	20700
696.849	20540
696.972	20455
697.094	20356
697.217	20657
697.34	20380
697.462	20634
697.585	20267
697.708	20260
697.83	20328
697.953	20216
698.075	20165
698.198	19984
698.321	20131
698.443	19854
698.566	19915
698.688	19653
698.811	19589
698.934	19810
699.056	19383
699.179	19368
699.301	19411
699.424	19262
699.546	19207
699.669	19250
699.792	18975
699.914	18817
700.037	18822
700.159	18532
700.282	18372
700.404	18298
700.527	18302
700.649	18097
700.772	18025
700.894	17732
701.016	17607
701.139	17555
701.261	17416
701.384	17195
701.506	17091
701.629	17154
701.751	16752
701.873	16675
701.996	16601
702.118	16640
702.241	16464
702.363	16617
702.485	16339
702.608	16444
702.73	16344
702.853	16345
702.975	16368
703.097	16221
703.22	16277
703.342	16408
703.464	16395
703.587	16236
703.709	16432
703.831	16514
703.953	16437
704.076	16539
704.198	16734
704.32	16737
704.442	16888
704.565	16796
704.687	16924
704.809	16891
704.931	16871
705.054	17221
705.176	17209
705.298	17235
705.42	17329
705.543	17465
705.665	17592
705.787	17634
705.909	17633
706.031	17735
706.025	19443
706.151	19341
706.278	19672
706.404	19635
706.531	19608
706.657	19688
706.783	19624
706.91	19762
707.036	19719
707.162	19616
707.289	19720
707.415	19609
707.541	19515
707.668	19557
707.794	19418
707.92	19594
708.047	19603
708.173	19356
708.299	19595
708.426	19291
708.552	19271
708.678	19039
708.805	18889
708.931	18839
709.057	18844
709.183	18663
709.31	18565
709.436	18505
709.562	18203
709.688	18265
709.815	18025
709.941	17842
710.067	17925
710.193	17668
710.32	17750
710.446	17426
710.572	17494
710.698	17154
710.824	17234
710.951	16875
711.077	16831
711.203	16836
711.329	16794
711.455	16685
711.581	16532
711.708	16471
711.834	16304
711.96	16308
712.086	16350
712.212	16231
712.338	16182
712.464	16188
712.591	15936
712.717	15949
712.843	15920
712.969	15971
713.095	15887
713.221	15677
713.347	15887
713.473	15812
713.599	15719
713.725	15727
713.852	15655
713.978	15794
714.104	15786
714.23	15777
714.356	15840
714.482	15927
714.608	15916
714.734	15764
714.86	15970
714.986	16004
715.112	16060
715.238	16055
715.364	16154
715.49	16185
715.616	16177
715.742	16342
715.868	16333
715.994	16510
716.12	16431
716.246	16528
716.372	16757
716.498	16608
716.624	16538
716.75	16299
716.876	16428
717.002	16244
717.127	16094
717.253	16042
717.379	15796
717.505	15612
717.631	15449
717.757	15341
717.883	15214
718.009	14977
718.135	14867
718.261	14623
718.386	14460
718.512	14098
718.638	14149
718.764	13787
718.89	13627
719.016	13371
719.142	13239
719.267	13129
719.393	13014
719.519	12893
719.645	12674
719.771	12630
719.896	12547
720.022	12314
720.148	12348
720.274	12323
720.4	12058
720.525	12101
720.651	11888
720.777	11942
720.903	11844
721.029	11802
721.154	11748
721.28	11619
721.406	11694
721.531	11599
721.657	11459
721.783	11398
721.909	11226
722.034	11140
722.16	11170
722.286	11016
722.411	11008
722.537	10841
722.663	10767
722.789	10735
722.914	10603
723.04	10467
723.166	10395
723.291	10229
723.417	10306
723.542	10124
723.668	10006
723.794	9947
723.919	9818
724.045	9707
724.171	9788
724.296	9664
724.422	9572
724.547	9540
724.673	9412
724.799	9247
724.924	9208
725.05	9149
725.175	9067
725.301	9046
725.426	8856
725.552	8849
725.678	8838
725.803	8694
725.929	8671
726.054	8540
726.18	8460
726.305	8544
726.431	8422
726.556	8306
726.682	8260
726.807	8171
726.933	8121
727.058	8171
727.184	8009
727.309	8095
727.435	7930
727.56	7960
727.686	7901
727.811	7800
727.937	7790
728.062	7658
728.187	7621
728.313	7616
728.438	7635
728.564	7572
728.689	7467
728.815	7407
728.94	7425
729.065	7395
729.191	7376
729.316	7330
729.441	7181
729.567	7238
729.692	7313
729.818	7058
729.943	7055
730.068	7133
730.194	7081
730.319	7091
730.444	7076
730.57	7048
730.695	7011
730.82	6850
730.946	6891
731.071	6883
731.196	6873
731.321	6900
731.447	6762
731.572	6823
731.697	6703
731.823	6706
731.948	6600
732.073	6759
732.198	6612
732.324	6628
732.449	6550
732.574	6566
732.699	6493
732.825	6556
732.95	6491
733.075	6478
733.2	6437
733.325	6374
733.451	6347
733.576	6344
733.701	6386
733.826	6294
733.951	6287
734.077	6248
734.202	6182
734.327	6267
734.452	6217
734.577	6183
734.702	6107
734.827	6123
734.953	6029
735.078	6005
735.203	6029
735.328	6079
735.453	5988
735.578	6041
735.703	6002
735.828	6042
735.953	5936
736.078	5949
736.203	5936
736.329	5892
736.454	5929
736.579	5830
736.704	5889
736.829	5827
736.954	5888
737.079	5820
737.204	5826
737.329	5708
737.454	5825
737.579	5768
737.704	5764
737.829	5762
737.954	5702
738.079	5710
738.204	5620
738.329	5731
738.454	5691
738.579	5638
738.704	5595
738.829	5638
738.953	5560
739.078	5725
739.203	5604
739.328	5605
739.453	5618
739.578	5528
739.703	5527
739.828	5452
739.953	5529
740.078	5559
740.203	5426
740.327	5375
740.452	5443
740.577	5378
740.702	5456
740.827	5379
740.952	5365
741.077	5280
741.201	5395
741.326	5343
741.451	5302
741.576	5340
741.701	5267
741.825	5156
741.95	5225
742.075	5170
742.2	5196
742.325	5135
742.449	5227
742.574	5112
742.699	5116
742.824	5052
742.948	5155
743.073	5130
743.198	5140
743.323	4976
743.447	5072
743.572	5073
743.697	5021
743.821	5025
743.946	4960
744.071	4951
744.196	4877
744.32	4872
744.445	4937
744.57	4841
744.694	4864
744.819	4735
744.944	4803
745.068	4788
745.193	4851
745.318	4809
745.442	4841
745.567	4724
745.691	4723
745.816	4711
745.941	4626
746.065	4687
746.19	4581
746.314	4719
746.439	4694
746.564	4659
746.688	4607
746.813	4628
746.937	4522
747.062	4548
747.186	4602
747.311	4544
747.435	4563
747.56	4557
747.684	4584
747.809	4466
747.933	4468
748.058	4439
748.182	4476
748.307	4398
748.431	4437
748.556	4393
748.68	4415
748.805	4329
748.929	4382
749.054	4278
749.178	4325
749.303	4331
749.427	4303
749.552	4255
749.676	4202
749.8	4281
749.925	4315
750.049	4219
750.174	4259
750.298	4206
750.422	4160
750.547	4158
750.671	4153
750.796	4144
750.92	4168
751.044	4159
751.169	4112
751.293	4107
751.417	4161
751.542	4060
751.666	4070
751.79	4117
751.915	4069
752.039	4052
752.163	4065
752.287	3998
752.412	3967
752.536	3975
752.66	3985
752.785	3990
752.909	3946
753.033	3982
753.157	3942
753.282	3953
753.406	3906
753.53	3881
753.654	3838
753.779	3941
753.903	3906
754.027	3838
754.151	3816
754.275	3779
754.4	3892
754.524	3849
754.648	3758
754.772	3789
754.896	3776
755.02	3772
755.145	3777
755.269	3805
755.393	3765
755.517	3732
755.641	3751
755.765	3725
755.889	3722
756.013	3641
756.138	3675
756.262	3601
756.386	3678
756.51	3615
756.634	3650
756.758	3617
756.882	3667
757.006	3555
757.13	3568
757.254	3632
757.378	3568
757.502	3587
757.626	3548
757.75	3503
757.874	3559
757.998	3482
758.122	3532
758.246	3492
758.37	3428
758.494	3480
758.618	3438
758.742	3384
758.866	3463
758.99	3446
759.114	3439
759.238	3474
759.362	3412
759.486	3413
759.61	3394
759.734	3363
759.858	3326
759.982	3391
760.106	3363
760.23	3365
760.353	3366
760.477	3353
760.601	3377
760.725	3242
760.849	3300
760.973	3261
761.097	3236
761.221	3264
761.344	3262
761.468	3275
761.592	3254
761.716	3181
761.84	3232
761.963	3198
762.087	3268
762.211	3187
762.335	3196
762.459	3178
762.582	3137
762.706	3179
762.83	3119
762.954	3104
763.078	3123
763.201	3189
763.325	3178
763.449	3131
763.572	3102
763.696	3131
763.82	3092
763.944	3108
764.067	3129
764.191	3144
764.315	3090
764.438	3023
764.562	3039
764.686	3072
764.809	2991
764.933	3023
765.057	3010
765.18	2988
765.304	3006
765.428	2957
765.551	3034
765.675	3004
765.798	2973
765.922	2972
766.046	2965
766.169	2904
766.293	2947
766.416	2981
766.54	2916
766.664	2975
766.787	2938
766.911	2948
767.034	2951
767.158	2851
767.281	2806
767.405	2913
767.528	2875
767.652	2836
767.775	2792
767.899	2881
768.022	2824
768.146	2839
768.269	2764
768.393	2827
768.516	2793
768.64	2844
768.763	2767
768.887	2770
769.01	2805
769.134	2750
769.257	2763
769.381	2736
769.504	2783
769.627	2755
769.751	2760
769.874	2697
769.998	2704
770.121	2725
770.244	2738
770.368	2680
770.491	2692
770.614	2747
770.738	2647
770.861	2672
770.985	2691
771.108	2662
771.231	2705
771.355	2662
771.478	2642
771.601	2637
771.724	2602
771.848	2608
771.971	2642
772.094	2593
772.218	2574
772.341	2644
772.464	2584
772.587	2609
772.711	2582
772.834	2557
772.957	2605
773.08	2535
773.204	2590
773.327	2569
773.45	2576
773.573	2594
773.696	2590
773.82	2497
773.943	2538
774.066	2464
774.189	2522
774.312	2502
774.436	2462
774.559	2410
774.682	2470
774.805	2465
774.928	2442
775.051	2481
775.174	2462
775.297	2425
775.421	2449
775.544	2446
775.667	2442
775.79	2432
775.913	2451
776.036	2406
776.159	2427
776.282	2453
776.405	2430
776.528	2404
776.651	2365
776.774	2401
776.897	2382
777.02	2380
777.143	2383
777.266	2391
777.389	2362
777.512	2314
777.635	2318
777.758	2318
777.881	2374
778.004	2349
778.127	2292
778.25	2314
778.373	2348
778.496	2308
778.619	2273
778.742	2305
778.865	2314
778.988	2316
779.111	2322
779.234	2299
779.357	2264
779.48	2297
779.602	2260
779.725	2268
779.848	2282
779.971	2266
780.094	2253
780.217	2258
780.34	2248
780.462	2211
780.585	2245
780.708	2245
780.831	2206
780.954	2242
781.077	2195
781.199	2231
781.322	2226
781.445	2201
781.568	2205
781.691	2193
781.813	2230
781.936	2170
782.059	2168
782.182	2182
782.304	2146
782.427	2173
782.55	2179
782.672	2154
782.795	2141
782.918	2131
783.041	2150
783.163	2125
783.286	2110
783.409	2131
783.531	2135
783.654	2110
783.777	2101
783.899	2113
784.022	2117
784.145	2096
784.267	2103
784.39	2063
784.512	2071
784.635	2091
784.758	2084
784.88	2082
785.003	2074
785.125	2071
785.248	2034
785.371	2068
785.493	2037
785.616	2062
785.738	2034
785.861	2093
785.983	2061
786.106	2058
786.228	1992
786.351	2023
786.473	2062
786.596	1977
786.718	2017
786.841	2045
786.963	2039
787.086	2032
787.208	1998
787.331	1989
787.453	1997
787.576	1975
787.698	1965
787.821	1960
787.943	1981
788.066	2017
788.188	1954
788.31	1937
788.433	1968
788.555	1951
788.678	1946
788.8	1951
788.922	1943
789.045	1883
789.167	1946
789.289	1965
789.412	1925
789.534	1936
789.656	1912
789.779	1943
789.901	1949
790.023	1911
790.146	1933
790.268	1912
790.39	1916
790.513	1906
790.635	1890
790.757	1901
790.879	1883
791.002	1937
791.124	1901
791.246	1924
791.368	1893
791.491	1867
791.613	1887
791.735	1900
791.857	1887
791.98	1912
792.102	1879
792.224	1883
792.346	1833
792.468	1863
792.59	1846
792.713	1849
792.835	1844
792.957	1861
793.079	1840
793.201	1821
793.323	1849
793.446	1880
793.568	1860
793.69	1853
793.812	1812
793.934	1826
794.056	1865
794.178	1848
794.3	1844
794.422	1853
794.544	1824
794.666	1804
794.788	1813
794.91	1818
795.033	1809
795.155	1785
795.277	1792
795.399	1812
795.521	1765
795.643	1816
795.765	1773
795.887	1803
796.009	1756
796.131	1804
796.253	1790
796.374	1778
796.496	1768
796.618	1785
796.74	1776
796.862	1777
796.984	1752
797.106	1772
797.228	1750
797.35	1737
797.472	1769
797.594	1767
797.716	1770
797.837	1774
797.959	1773
798.081	1761
798.203	1766
798.325	1740
798.447	1743
798.569	1750
798.69	1730
798.812	1716
798.934	1746
799.056	1753
799.178	1762
799.299	1760
799.421	1734
799.543	1707
799.665	1725
799.787	1744
799.908	1716
800.03	1741
800.152	1728
800.274	1698
800.395	1713
800.517	1691
800.639	1731
800.76	1711
800.882	1693
801.004	1663
801.126	1685
801.247	1734
801.369	1692
801.491	1692
801.612	1684
801.734	1692
801.856	1643
801.977	1701
802.099	1671
802.22	1679
802.342	1691
802.464	1669
802.585	1644
802.707	1659
802.828	1669
802.95	1659
803.072	1678
803.193	1682
803.315	1677
803.436	1674
803.558	1655
803.679	1649
803.801	1661
803.922	1643
804.044	1654
804.165	1617
804.287	1650
804.408	1695
804.53	1677
804.651	1635
804.773	1689
804.894	1613
805.016	1653
805.137	1635
805.259	1625
805.38	1658
805.502	1610
805.623	1651
805.745	1620
805.866	1622
805.987	1621
806.109	1620
806.23	1628
806.352	1599
806.473	1605
806.594	1574
806.716	1601
806.837	1612
806.958	1599
807.08	1617
807.201	1618
807.322	1593
807.444	1607
807.565	1595
807.686	1612
807.808	1589
807.929	1579
808.05	1562
808.171	1562
808.293	1591
808.414	1578
808.535	1602
808.657	1613
808.778	1631
808.899	1589
809.02	1619
809.141	1549
809.263	1577
809.384	1618
809.505	1575
809.626	1544
809.747	1582
809.869	1586
809.99	1601
810.111	1552
810.232	1555
810.353	1546
810.474	1564
810.596	1560
810.717	1536
810.838	1593
810.959	1549
811.08	1548
811.201	1554
811.322	1559
811.443	1530
811.564	1566
811.686	1534
811.807	1533
811.928	1565
812.049	1568
812.17	1508
812.291	1533
812.412	1556
812.533	1541
812.654	1529
812.775	1536
812.896	1518
813.017	1534
813.138	1557
813.259	1536
813.38	1541
813.501	1519
813.622	1549
813.743	1514
813.864	1538
813.985	1508
814.105	1524
814.226	1536
814.347	1522
814.468	1529
814.589	1501
814.71	1518
814.831	1520
814.952	1523
815.073	1490
815.194	1542
815.314	1517
815.435	1513
815.556	1520
815.677	1495
815.798	1512
815.919	1514
816.039	1519
816.16	1481
816.281	1513
816.402	1479
816.523	1489
816.643	1500
816.764	1477
816.885	1508
817.006	1493
817.126	1477
817.247	1480
817.368	1506
817.489	1480
817.609	1477
817.73	1471
817.851	1489
817.971	1478
818.092	1474
818.213	1488
818.333	1462
818.454	1506
818.575	1485
818.695	1463
818.816	1491
818.937	1472
819.057	1479
819.178	1485
819.299	1484
819.419	1477
819.54	1455
819.66	1480
819.781	1459
819.902	1436
820.022	1448
820.143	1464
820.263	1431
820.384	1454
820.504	1471
820.625	1453
820.745	1436
820.866	1464
820.987	1447
821.107	1459
821.228	1460
821.348	1452
821.469	1454
821.589	1460
821.709	1441
821.83	1425
821.95	1461
822.071	1446
822.191	1437
822.312	1457
822.432	1436
822.553	1433
822.673	1435
822.793	1471
822.914	1442
823.034	1456
823.155	1423
823.275	1439
823.395	1435
823.516	1414
823.636	1429
823.756	1445
823.877	1437
823.997	1447
824.117	1412
824.238	1436
824.358	1408
824.478	1411
824.599	1408
824.719	1420
824.839	1426
824.959	1409
825.08	1414
825.2	1432
825.32	1410
825.44	1431
825.561	1415
825.681	1413
825.801	1410
825.921	1398
826.042	1451
826.162	1428
826.282	1407
826.402	1409
826.522	1420
826.643	1416
826.763	1385
826.883	1404
827.003	1410
827.123	1419
827.243	1397
827.363	1400
827.484	1416
827.604	1396
827.724	1378
827.844	1382
827.964	1418
828.084	1406
828.204	1397
828.324	1405
828.444	1412
828.564	1399
828.684	1421
828.804	1409
828.924	1393
829.044	1383
829.164	1401
829.284	1393
829.404	1384
829.524	1385
829.644	1394
829.764	1373
829.884	1368
830.004	1386
830.124	1395
830.244	1386
830.364	1395
830.484	1393
830.604	1394
830.724	1391
830.844	1395
830.964	1371
830.961	1402
831.086	1401
831.21	1398
831.334	1379
831.459	1406
831.583	1405
831.707	1395
831.832	1406
831.956	1394
832.08	1381
832.204	1383
832.329	1393
832.453	1386
832.577	1379
832.701	1392
832.826	1401
832.95	1359
833.074	1388
833.198	1387
833.323	1378
833.447	1371
833.571	1389
833.695	1380
833.819	1357
833.944	1359
834.068	1380
834.192	1382
834.316	1371
834.44	1361
834.564	1379
834.689	1364
834.813	1362
834.937	1386
835.061	1389
835.185	1384
835.309	1369
835.433	1357
835.558	1386
835.682	1387
835.806	1366
835.93	1371
836.054	1402
836.178	1350
836.302	1367
836.426	1354
836.55	1360
836.674	1377
836.798	1387
836.922	1381
837.046	1350
837.17	1373
837.295	1380
837.419	1362
837.543	1345
837.667	1363
837.791	1347
837.915	1359
838.039	1348
838.163	1357
838.287	1354
838.411	1349
838.535	1357
838.659	1338
838.782	1346
838.906	1367
839.03	1359
839.154	1369
839.278	1348
839.402	1330
839.526	1349
839.65	1344
839.774	1350
839.898	1347
840.022	1338
840.146	1356
840.27	1353
840.393	1344
840.517	1345
840.641	1327
840.765	1334
840.889	1342
841.013	1325
841.137	1355
841.261	1337
841.384	1334
841.508	1348
841.632	1322
841.756	1347
841.88	1321
842.004	1360
842.127	1358
842.251	1352
842.375	1332
842.499	1336
842.622	1321
842.746	1313
842.87	1336
842.994	1344
843.118	1311
843.241	1307
843.365	1350
843.489	1316
843.613	1332
843.736	1317
843.86	1351
843.984	1345
844.107	1328
844.231	1313
844.355	1336
844.479	1307
844.602	1336
844.726	1321
844.85	1332
844.973	1310
845.097	1345
845.221	1331
845.344	1334
845.468	1336
845.592	1328
845.715	1307
845.839	1305
845.962	1322
846.086	1329
846.21	1320
846.333	1314
846.457	1327
846.58	1333
846.704	1304
846.828	1325
846.951	1322
847.075	1338
847.198	1310
847.322	1311
847.445	1295
847.569	1313
847.693	1301
847.816	1300
847.94	1319
848.063	1332
848.187	1332
848.31	1318
848.434	1339
848.557	1306
848.681	1318
848.804	1313
848.928	1301
849.051	1319
849.175	1294
849.298	1324
849.421	1313
849.545	1293
849.668	1306
849.792	1289
849.915	1280
850.039	1286
850.162	1276
850.286	1310
850.409	1315
850.532	1306
850.656	1307
850.779	1314
850.902	1299
851.026	1289
851.149	1319
851.273	1292
851.396	1288
851.519	1318
851.643	1289
851.766	1281
851.889	1313
852.013	1264
852.136	1284
852.259	1298
852.383	1291
852.506	1303
852.629	1292
852.753	1288
852.876	1279
852.999	1313
853.122	1280
853.246	1290
853.369	1275
853.492	1258
853.615	1289
853.739	1277
853.862	1289
853.985	1284
854.108	1269
854.232	1299
854.355	1271
854.478	1299
854.601	1272
854.724	1286
854.848	1289
854.971	1278
855.094	1278
855.217	1276
855.34	1258
855.463	1292
855.587	1284
855.71	1276
855.833	1270
855.956	1280
856.079	1279
856.202	1274
856.325	1252
856.449	1291
856.572	1271
856.695	1285
856.818	1268
856.941	1260
857.064	1278
857.187	1271
857.31	1260
857.433	1270
857.556	1260
857.679	1282
857.802	1276
857.925	1272
858.048	1275
858.171	1284
858.294	1272
858.417	1258
858.54	1259
858.663	1260
858.786	1276
858.909	1281
859.032	1245
859.155	1256
859.278	1269
859.401	1263
859.524	1262
859.647	1252
859.77	1259
859.893	1279
860.016	1239
860.139	1255
860.262	1266
860.385	1265
860.508	1271
860.631	1261
860.754	1250
860.876	1265
860.999	1265
861.122	1248
861.245	1257
861.368	1246
861.491	1254
861.614	1251
861.736	1262
861.859	1247
861.982	1237
862.105	1251
862.228	1254
862.351	1263
862.473	1241
862.596	1264
862.719	1259
862.842	1271
862.965	1252
863.087	1252
863.21	1254
863.333	1274
863.456	1266
863.578	1253
863.701	1252
863.824	1245
863.947	1249
864.069	1248
864.192	1257
864.315	1254
864.438	1262
864.56	1258
864.683	1251
864.806	1239
864.928	1232
865.051	1242
865.174	1264
865.296	1240
865.419	1237
865.542	1236
865.664	1228
865.787	1241
865.91	1257
866.032	1245
866.155	1249
866.277	1247
866.4	1236
866.523	1239
866.645	1241
866.768	1234
866.89	1243
867.013	1249
867.136	1242
867.258	1256
867.381	1241
867.503	1235
867.626	1228
867.748	1244
867.871	1244
867.993	1242
868.116	1218
868.238	1239
868.361	1255
868.483	1238
868.606	1225
868.728	1218
868.851	1251
868.973	1238
869.096	1230
869.218	1226
869.341	1236
869.463	1230
869.586	1223
869.708	1224
869.83	1231
869.953	1235
870.075	1257
870.198	1249
870.32	1231
870.442	1239
870.565	1227
870.687	1237
870.81	1256
870.932	1239
871.054	1221
871.177	1239
871.299	1226
871.421	1229
871.544	1207
871.666	1216
871.788	1234
871.911	1219
872.033	1232
872.155	1225
872.278	1230
872.4	1233
872.522	1233
872.645	1237
872.767	1217
872.889	1236
873.011	1215
873.134	1200
873.256	1231
873.378	1231
873.5	1232
873.623	1209
873.745	1219
873.867	1211
873.989	1225
874.111	1223
874.234	1217
874.356	1213
874.478	1229
874.6	1219
874.722	1209
874.845	1228
874.967	1215
875.089	1221
875.211	1216
875.333	1227
875.455	1233
875.577	1218
875.7	1221
875.822	1207
875.944	1221
876.066	1213
876.188	1216
876.31	1205
876.432	1221
876.554	1203
876.676	1207
876.798	1197
876.92	1208
877.042	1207
877.164	1209
877.287	1207
877.409	1204
877.531	1216
877.653	1209
877.775	1209
877.897	1189
878.019	1209
878.141	1190
878.263	1216
878.385	1216
878.507	1210
878.628	1186
878.75	1207
878.872	1221
878.994	1204
879.116	1203
879.238	1225
879.36	1205
879.482	1212
879.604	1221
879.726	1211
879.848	1201
879.97	1202
880.092	1202
880.213	1204
880.335	1192
880.457	1195
880.579	1199
880.701	1208
880.823	1198
880.945	1205
881.066	1206
881.188	1192
881.31	1195
881.432	1197
881.554	1209
881.675	1221
881.797	1204
881.919	1200
882.041	1195
882.163	1211
882.284	1218
882.406	1190
882.528	1204
882.65	1201
882.771	1203
882.893	1170
883.015	1191
883.137	1199
883.258	1206
883.38	1174
883.502	1183
883.623	1199
883.745	1198
883.867	1191
883.988	1185
884.11	1201
884.232	1185
884.353	1199
884.475	1191
884.597	1194
884.718	1198
884.84	1202
884.962	1187
885.083	1190
885.205	1197
885.326	1205
885.448	1192
885.57	1193
885.691	1189
885.813	1188
885.934	1186
886.056	1164
886.177	1188
886.299	1186
886.421	1173
886.542	1213
886.664	1179
886.785	1161
886.907	1192
887.028	1202
887.15	1192
887.271	1177
887.393	1191
887.514	1182
887.636	1202
887.757	1185
887.879	1196
888	1182
888.121	1173
888.243	1194
888.364	1180
888.486	1190
888.607	1187
888.729	1174
888.85	1176
888.971	1183
889.093	1199
889.214	1187
889.336	1182
889.457	1191
889.578	1183
889.7	1200
889.821	1168
889.942	1179
890.064	1172
890.185	1188
890.306	1178
890.428	1183
890.549	1186
890.67	1176
890.792	1181
890.913	1179
891.034	1172
891.156	1185
891.277	1176
891.398	1168
891.519	1174
891.641	1183
891.762	1178
891.883	1173
892.004	1172
892.126	1173
892.247	1176
892.368	1165
892.489	1179
892.61	1170
892.732	1153
892.853	1171
892.974	1169
893.095	1160
893.216	1190
893.337	1166
893.459	1175
893.58	1172
893.701	1152
893.822	1179
893.943	1161
894.064	1167
894.185	1178
894.306	1182
894.428	1158
894.549	1153
894.67	1165
894.791	1172
894.912	1187
895.033	1173
895.154	1178
895.275	1167
895.396	1165
895.517	1160
895.638	1157
895.759	1142
895.88	1170
896.001	1143
896.122	1161
896.243	1161
896.364	1175
896.485	1167
896.606	1166
896.727	1155
896.848	1152
896.969	1159
897.09	1169
897.211	1161
897.332	1171
897.453	1154
897.574	1166
897.695	1171
897.816	1158
897.936	1165
898.057	1161
898.178	1156
898.299	1147
898.42	1163
898.541	1157
898.662	1153
898.783	1154
898.903	1169
899.024	1151
899.145	1158
899.266	1171
899.387	1151
899.507	1154
899.628	1160
899.749	1155
899.87	1154
899.991	1157
900.111	1160
900.232	1159
900.353	1148
900.474	1153
900.594	1133
900.715	1135
900.836	1156
900.957	1156
901.077	1149
901.198	1152
901.319	1143
901.439	1137
901.56	1145
901.681	1160
901.802	1141
901.922	1137
902.043	1154
902.164	1146
902.284	1144
902.405	1157
902.525	1141
902.646	1138
902.767	1140
902.887	1151
903.008	1144
903.129	1146
903.249	1142
903.37	1149
903.49	1137
903.611	1158
903.731	1144
903.852	1149
903.973	1134
904.093	1140
904.214	1140
904.334	1148
904.455	1137
904.575	1139
904.696	1143
904.816	1147
904.937	1131
905.057	1142
905.178	1143
905.298	1151
905.419	1117
905.539	1148
905.66	1140
905.78	1144
905.9	1138
906.021	1137
906.141	1138
906.262	1146
906.382	1153
906.503	1144
906.623	1139
906.743	1143
906.864	1134
906.984	1141
907.104	1137
907.225	1126
907.345	1136
907.466	1119
907.586	1122
907.706	1138
907.827	1127
907.947	1133
908.067	1136
908.188	1132
908.308	1136
908.428	1137
908.548	1126
908.669	1129
908.789	1124
908.909	1122
909.029	1124
909.15	1128
909.27	1126
909.39	1135
909.51	1127
909.631	1144
909.751	1115
909.871	1126
909.991	1133
910.111	1132
910.232	1122
910.352	1124
910.472	1138
910.592	1119
910.712	1114
910.832	1132
910.953	1125
911.073	1122
911.193	1134
911.313	1117
911.433	1132
911.553	1115
911.673	1113
911.793	1125
911.914	1134
912.034	1125
912.154	1130
912.274	1120
912.394	1122
912.514	1114
912.634	1119
912.754	1110
912.874	1101
912.994	1118
913.114	1125
913.234	1121
913.354	1115
913.474	1120
913.594	1125
913.714	1111
913.834	1107
913.954	1129
914.074	1116
914.194	1118
914.314	1112
914.434	1111
914.554	1118
914.674	1109
914.794	1128
914.913	1122
915.033	1117
915.153	1110
915.273	1120
915.393	1112
915.513	1112
915.633	1105
915.753	1110
915.872	1114
915.992	1114
916.112	1115
916.232	1114
916.352	1115
916.472	1096
916.591	1109
916.711	1112
916.831	1117
916.951	1113
917.071	1111
917.19	1120
917.31	1121
917.43	1106
917.55	1115
917.669	1117
917.789	1100
917.909	1115
918.029	1102
918.148	1117
918.268	1119
918.388	1117
918.507	1103
918.627	1105
918.747	1106
918.866	1115
918.986	1107
919.106	1115
919.225	1110
919.345	1109
919.465	1106
919.584	1112
919.704	1114
919.824	1095
919.943	1119
920.063	1112
920.182	1115
920.302	1121
920.421	1110
920.541	1103
920.661	1118
920.78	1109
920.9	1109
921.019	1101
921.139	1110
921.258	1108
921.378	1106
921.497	1103
921.617	1116
921.736	1105
921.856	1107
921.975	1095
922.095	1102
922.214	1118
922.334	1087
922.453	1115
922.573	1118
922.692	1106
922.812	1102
922.931	1102
923.05	1110
923.17	1100
923.289	1100
923.409	1107
923.528	1106
923.647	1115
923.767	1098
923.886	1113
924.005	1099
924.125	1101
924.244	1101
924.363	1105
924.483	1110
924.602	1096
924.721	1108
924.841	1092
924.96	1098
925.079	1096
925.199	1104
925.318	1098
925.437	1110
925.556	1104
925.676	1098
925.795	1101
925.914	1094
926.033	1094
926.153	1104
926.272	1101
926.391	1096
926.51	1107
926.629	1090
926.749	1091
926.868	1099
926.987	1092
927.106	1096
927.225	1097
927.345	1102
927.464	1092
927.583	1108
927.702	1098
927.821	1103
927.94	1097
928.059	1089
928.178	1094
928.297	1084
928.417	1103
928.536	1088
928.655	1089
928.774	1103
928.893	1099
929.012	1089
929.131	1107
929.25	1077
929.369	1084
929.488	1082
929.607	1099
929.726	1101
929.845	1091
929.964	1086
930.083	1085
930.202	1097
930.321	1091
930.44	1092
930.559	1092
930.678	1097
930.797	1084
930.916	1091
931.035	1088
931.154	1098
931.272	1088
931.391	1103
931.51	1097
931.629	1087
931.748	1092
931.867	1094
931.986	1090
932.105	1089
932.223	1084
932.342	1087
932.461	1096
932.58	1090
932.699	1086
932.818	1094
932.936	1097
933.055	1102
933.174	1094
933.293	1099
933.412	1088
933.53	1100
933.649	1097
933.768	1095
933.887	1082
934.005	1091
934.124	1086
934.243	1095
934.361	1090
934.48	1095
934.599	1084
934.718	1095
934.836	1075
934.955	1087
935.074	1083
935.192	1086
935.311	1076
935.43	1076
935.548	1075
935.667	1078
935.785	1089
935.904	1091
936.023	1098
936.141	1078
936.26	1095
936.378	1078
936.497	1104
936.616	1087
936.734	1084
936.853	1070
936.971	1077
937.09	1080
937.208	1078
937.327	1083
937.445	1085
937.564	1084
937.682	1078
937.801	1095
937.919	1078
938.038	1089
938.156	1090
938.275	1083
938.393	1082
938.512	1078
938.63	1087
938.749	1083
938.867	1078
938.986	1093
939.104	1077
939.222	1087
939.341	1069
939.459	1082
939.577	1079
939.696	1084
939.814	1075
939.933	1084
940.051	1088
940.169	1087
940.288	1090
940.406	1075
940.524	1074
940.643	1070
940.761	1086
940.879	1070
940.998	1086
941.116	1087
941.234	1077
941.352	1076
941.471	1079
941.589	1087
941.707	1071
941.825	1089
941.944	1092
942.062	1075
942.18	1070
942.298	1084
942.416	1078
942.535	1074
942.653	1068
942.771	1078
942.889	1080
943.007	1065
943.125	1077
943.244	1071
943.362	1081
943.48	1072
943.598	1075
943.716	1069
943.834	1069
943.952	1082
944.07	1074
944.189	1077
944.307	1071
944.425	1075
944.543	1076
944.661	1064
944.779	1074
944.897	1069
945.015	1064
945.133	1076
945.251	1085
945.369	1080
945.487	1073
945.605	1065
945.723	1078
945.841	1071
945.959	1081
946.077	1076
946.195	1075
946.313	1065
946.431	1076
946.549	1080
946.667	1068
946.785	1080
946.902	1074
947.02	1068
947.138	1065
947.256	1065
947.374	1084
947.492	1071
947.61	1067
947.728	1070
947.845	1072
947.963	1074
948.081	1069
948.199	1073
948.317	1070
948.435	1065
948.552	1071
948.67	1060
948.788	1073
948.906	1075
949.024	1070
949.141	1070
949.259	1072
949.377	1070
949.495	1071
949.612	1067
949.73	1066
949.848	1071
949.965	1064
950.083	1068
950.201	1067
950.318	1073
950.436	1074
950.554	1076
950.672	1067
950.789	1059
950.907	1069
951.024	1067
951.142	1063
951.26	1070
951.377	1066
951.495	1059
951.613	1069
951.73	1065
951.848	1071
951.965	1068
952.083	1069
952.2	1069
952.318	1063
952.436	1069
952.553	1073
952.671	1067
952.788	1063
952.906	1068
953.023	1058
953.141	1055
953.258	1072
953.376	1066
953.493	1061
953.611	1060
953.728	1064
953.845	1053
953.963	1058
954.08	1070
954.198	1058
